#Rx
# X(m), Y(m), Z(m), Distance(m), Power (dBm) Phase (deg)
1 682.239 596.275 90.0275 87.3958 -130.452 96.6618
2 687.575 533.387 88.9169 79.2093 -111.843 54.7441
3 726.725 577.131 88.5142 52.7271 -101.782 -34.3073
4 752.958 686.018 87.9901 134.149 -110.036 -25.3418
5 755.08 660.266 88.7273 110.772 -111.241 20.7761
6 769.321 623.128 88.8904 81.7248 -106.333 156.814
7 751.632 702.258 87.42 149.281 -117.193 -109.043
8 724.732 822.593 50.6636 263.579 -250 0
9 783.021 664.343 87.3418 119.444 -131.631 -155.443
