#Rx
# X(m), Y(m), Z(m), Distance(m), Power (dBm) Phase (deg)
1 688.372 523.991 88.2271 81.8926 -121.537 -131.512
2 699.059 398.042 87.9592 174.638 -155.046 27.7979
3 845.106 470.363 83.3897 139.738 -118.824 20.9693
4 781.16 528.037 87.1536 65.1896 -108.691 -61.8116
5 749.976 722.222 85.8275 167.949 -114.089 47.201
6 758.883 614.096 88.6058 72.2211 -112.033 28.7577
7 772.287 451.393 86.9077 120.235 -110.68 -160.759
8 816.119 413.787 84.7596 167.567 -131.784 -148.418
9 751.546 702.642 86.9243 149.496 -111.972 113.289
10 722.521 832.48 50.0768 273.594 -250 0
