#Rx
# X(m), Y(m), Z(m), Distance(m), Power (dBm) Phase (deg)
1 682.304 595.507 139.285 121.164 -126.705 153.95
2 683.646 579.695 139.485 116.951 -127.695 -76.3811
3 688.746 519.59 137.783 118.26 -120.421 72.5909
4 660.087 543.219 140.239 131.191 -121.553 131.938
5 754.005 673.313 137.358 147.978 -111.115 155.888
6 755.266 658.002 137.85 137.03 -109.514 28.7175
7 760.329 596.552 137.844 103.089 -132.078 47.7642
8 772.568 447.981 136.705 148.742 -115.432 126.85
9 800.376 484.21 135.935 132.01 -114.843 65.7901
10 780.001 575.351 137.483 102.025 -118.055 -152.586
