#Rx
# X(m), Y(m), Z(m), Distance(m), Power (dBm) Phase (deg)
1 689.719 508.122 87.9633 89.015 -111.486 160.662
2 695.014 445.715 89.0821 133.523 -137.249 -66.4233
3 749.603 726.75 85.0797 172.132 -109.552 -109.2
4 778.381 582.598 87.5434 59.8834 -108.431 53.2873
5 811.505 434.425 85.2641 147.942 -114.36 134.062
6 792.688 679.337 85.3589 135.115 -125.425 -143.518
7 784.596 666.786 86.3978 121.728 -126.367 7.89457
8 770.629 645.12 87.5789 99.408 -105.39 59.8317
9 717.934 563.38 86.9081 52.6225 -135.941 -159.951
10 715.279 559.262 87.0755 54.1219 -108.305 -35.0947
