#Rx
# X(m), Y(m), Z(m), Distance(m), Power (dBm) Phase (deg)
1 682.771 589.997 99.2415 90.0812 -127.408 -127.582
2 695.759 436.933 98.9179 144.395 -140.526 98.2007
3 697.545 415.881 97.8347 161.794 -250 0
4 780.278 540.345 96.7998 67.136 -102.149 59.2355
5 761.696 579.957 97.5842 60.6325 -109.308 42.5711
6 762.719 567.539 97.3362 57.7995 -103.81 60.0319
7 763.918 552.988 97.1871 57.951 -103.913 18.8124
8 737.082 767.344 91.8972 213.328 -121.121 59.8139
9 723.177 829.549 59.5022 271.045 -250 0
10 715.666 559.862 96.7662 62.1485 -103.285 -126.965
