#Rx
# X(m), Y(m), Z(m), Distance(m), Power (dBm) Phase (deg)
1 679.479 628.801 88.6853 106.252 -129.97 116.426
2 690.687 496.714 88.2822 95.7004 -114.594 -87.049
3 749.347 729.853 84.6827 175.039 -119.965 -173.146
4 750.737 712.987 86.2195 159.175 -111.435 -85.0084
5 765.735 530.924 86.5206 56.3086 -106.885 -33.3845
6 769.706 482.722 86.525 92.0325 -108.334 -56.9054
7 808.418 448.235 85.4779 135.028 -108.692 30.615
8 768.995 624.586 87.9796 82.2577 -106.976 -111.789
9 730.365 797.391 49.764 238.015 -146.747 162.608
10 715.618 559.788 86.929 53.8048 -109.402 174.063
