#Rx
# X(m), Y(m), Z(m), Distance(m), Power (dBm) Phase (deg)
1 686.832 542.147 87.0416 76.1675 -113.701 59.7821
2 699.179 396.626 86.0976 175.447 -143.596 17.2813
3 743.963 561.584 86.04 43.5929 -99.6733 -155.19
4 668.716 629.45 87.3678 113.169 -138.792 146.208
5 751.874 699.175 85.2995 145.719 -111.538 146.967
6 761.851 578.073 86.4531 50.0769 -101.761 155.694
7 820.542 394 82.13 186.229 -140.556 -23.5697
8 794.608 510.009 85.0238 81.6586 -112.813 -139.513
9 780.822 571.681 86.0814 56.9763 -106.692 30.8713
10 733.25 784.488 79.4431 227.861 -118.735 -176.728
