#Rx
# X(m), Y(m), Z(m), Distance(m), Power (dBm) Phase (deg)
1 677.78 648.828 113.026 132.344 -125.471 -19.6359
2 691.25 490.076 112.803 113.252 -119.043 115.61
3 670.461 542.971 114.209 105.522 -118.206 -121.666
4 772.943 443.432 111.214 137.958 -113.79 173.378
5 756.514 642.862 112.412 108.909 -108.211 42.1902
6 758.611 617.4 112.789 91.6022 -112.538 -35.6908
7 767.797 505.901 111.055 89.9906 -109.797 -155.569
8 781.628 662.182 111.126 128.128 -110.137 131.629
9 770.668 645.181 112.272 112.823 -106.185 134.716
10 717.657 562.95 111.447 74.582 -104.534 168.896
