#Rx
# X(m), Y(m), Z(m), Distance(m), Power (dBm) Phase (deg)
1 687.175 538.1 88.1975 77.6279 -113.709 81.8658
2 699.194 396.45 87.4083 175.937 -147.584 143.177
3 740.567 564.648 87.4026 45.445 -124.056 -116.952
4 667.057 630.946 88.6622 115.733 -132.231 158.014
5 752.292 694.099 86.7568 141.346 -106.199 -4.4022
6 762.245 573.286 87.7065 49.819 -111.932 57.1464
7 819.706 397.741 83.6194 182.892 -126.967 -133.25
8 793.721 513.977 86.3957 79.4997 -110.328 -142.885
9 780.035 575.202 87.4408 58.3698 -110.322 110.731
10 732.395 788.312 80.4006 231.832 -112.445 171.904
