#Rx
# X(m), Y(m), Z(m), Distance(m), Power (dBm) Phase (deg)
1 676.921 658.943 87.8925 128.918 -146.102 -71.1625
2 682.432 593.998 88.8803 85.7069 -124.325 161.701
3 672.411 542.924 89.1793 88.7899 -117.116 -106.589
4 751.33 705.784 86.1222 152.257 -114.801 -143.906
5 754.089 672.295 87.0906 121.086 -109.272 -53.1245
6 761.156 586.515 87.5675 54.4213 -103.177 -151.788
7 762.697 567.808 87.2045 48.3335 -100.534 101.951
8 723.469 828.241 49.4673 269.275 -250 0
9 720.482 567.333 86.9145 51.7251 -99.0316 165.37
