#Rx
# X(m), Y(m), Z(m), Distance(m), Power (dBm) Phase (deg)
1 677.137 656.396 136.149 150.997 -124.322 -86.2533
2 682.617 591.814 137.126 118.233 -133.213 169.971
3 845.644 469.878 130.841 160.782 -121.15 54.1789
4 670.566 542.968 137.507 122.483 -124.271 -176.715
5 751.559 703.005 134.401 170.067 -109.923 59.8044
6 754.317 669.521 135.369 143.82 -117.916 -57.7523
7 761.399 583.559 135.731 97.3636 -129.922 151.254
8 762.935 564.912 135.368 94.5043 -124.57 7.25042
9 723.232 829.3 97.6655 275.829 -250 0
10 719.728 566.163 135.064 96.3951 -128.127 90.7793
