#Rx
# X(m), Y(m), Z(m), Distance(m), Power (dBm) Phase (deg)
1 699.157 396.892 87.4078 175.536 -154.385 -122.879
2 749.904 556.227 87.1196 44.9253 -116.96 119.915
3 760.558 540.816 86.7688 50.3744 -110.022 -25.3895
4 759.163 610.703 88.1526 69.4701 -112.608 -101.218
5 750.201 708.66 86.4728 155.077 -109.898 -23.8819
6 811.273 435.462 85.3201 146.976 -118.075 -82.7626
7 780.738 572.058 87.3972 58.015 -106.914 15.4432
8 719.733 566.171 87.0233 52.0409 -121.978 -145.383
9 717.073 562.045 87.0012 53.0961 -120.35 83.8139
10 715.617 559.787 86.929 53.8051 -108.826 118.461
