#Rx
# X(m), Y(m), Z(m), Distance(m), Power (dBm) Phase (deg)
1 687.061 539.449 188.249 158.531 -124.761 -173.03
2 699.192 396.48 187.408 223.431 -132.325 -79.7047
3 741.697 563.628 187.385 144.971 -146.011 -76.7427
4 667.589 630.466 188.667 180.199 -133.986 19.6555
5 752.153 695.791 186.708 198.157 -116.222 140.172
6 762.114 574.882 187.726 146.849 -138.852 98.4239
7 819.984 396.494 183.56 228.253 -117.976 13.6095
8 794.017 512.654 186.375 158.873 -144.607 -7.83623
9 780.297 574.03 187.425 149.564 -131.725 -42.2854
10 732.68 787.038 180.518 266.019 -119.891 8.59619
