#Rx
# X(m), Y(m), Z(m), Distance(m), Power (dBm) Phase (deg)
1 687.89 529.678 88.0156 79.7857 -113.257 68.1874
2 748.641 738.42 84.1132 183.222 -120.562 118.788
3 749.986 722.096 85.3252 167.699 -107.916 26.5059
4 824.698 375.408 82.22 204.557 -129.57 -173.915
5 815.946 414.559 84.4238 166.736 -132.726 120.769
6 753.613 693.395 86.8647 140.777 -140.732 125.563
7 748.129 717.929 85.8617 163.781 -111.283 148.041
8 736.852 768.372 81.8799 212.253 -115.556 117.273
9 768.409 641.677 87.8435 96.0586 -103.644 -90.0078
