#Rx
# X(m), Y(m), Z(m), Distance(m), Power (dBm) Phase (deg)
1 689.826 506.859 137.983 122.85 -124.491 86.0039
2 695.152 444.09 139.108 159.214 -120.506 101.914
3 749.693 725.653 135.171 189.837 -113.132 53.4326
4 778.115 583.79 137.56 103.098 -116.884 122.987
5 811.214 435.724 135.284 168.232 -114.757 -150.072
6 791.95 678.193 135.478 157.231 -114.465 -48.7781
7 783.872 665.662 136.464 146.368 -116.31 -136.136
8 769.999 644.143 137.637 129.238 -112.746 20.1977
9 717.676 562.98 136.892 98.5721 -128.623 -147.408
10 715.247 559.213 137.076 99.431 -134.605 107.205
