#Rx
# X(m), Y(m), Z(m), Distance(m), Power (dBm) Phase (deg)
1 685.005 563.673 87.3283 75.7715 -126.57 100.424
2 688.357 524.167 85.7651 80.477 -127.475 -100.354
3 692.255 478.225 86.4857 107.276 -131.653 50.5997
4 740.902 564.345 85.451 43.4469 -99.3151 -63.1759
5 719.09 541.808 84.38 52.9815 -123.505 166.744
6 672.091 542.932 87.4519 88.1614 -125.908 -80.9108
7 763.469 558.43 85.4323 46.3551 -98.0395 -140.035
8 772.898 443.984 84.8397 126.388 -110.549 -107.619
9 773.296 439.147 84.7985 130.911 -109.42 73.9388
10 748.384 716.787 83.9031 162.173 -115.849 -117.671
