#Rx
# X(m), Y(m), Z(m), Distance(m), Power (dBm) Phase (deg)
1 699.211 396.253 187.509 223.658 -131.258 54.8805
2 712.893 589.607 188.222 152.318 -124.48 156.828
3 666.548 631.405 188.617 180.983 -129.844 68.0778
4 832.351 539.1 183.972 167.036 -124.06 -24.663
5 716.1 541.879 186.316 147.982 -132.903 158.995
6 759.596 605.443 187.95 152.967 -134.225 -124.435
7 764.293 548.435 187.167 146.253 -133.969 -137.288
8 770.455 473.63 186.535 169.697 -121.193 6.03736
9 794.348 511.175 186.452 159.489 -130.37 -93.6686
10 781.299 569.548 187.362 149.384 -145.79 63.2215
