#Rx
# X(m), Y(m), Z(m), Distance(m), Power (dBm) Phase (deg)
1 686.324 548.128 140.017 114.922 -137.508 2.91482
2 742.968 562.482 138.662 96.2184 -139.38 -129.581
3 692.66 607.855 140.455 121.35 -132.936 26.7785
4 663.253 634.377 139.922 147.87 -129.114 121.715
5 847.635 538.734 134.346 138.612 -117.991 -53.5467
6 814.159 422.553 136.202 179.759 -110.947 -93.5962
7 774.565 599.669 139.257 108.383 -121.469 70.8059
8 771.123 615.068 139.33 114.172 -115.217 -166.807
9 753.899 692.115 138.291 163.365 -112.625 -89.0986
10 728.614 805.224 101.2 252.745 -250 0
