#Rx
# X(m), Y(m), Z(m), Distance(m), Power (dBm) Phase (deg)
1 681.291 607.444 90.1805 93.324 -135.247 145.251
2 697.95 411.115 88.9537 163.191 -250 0
3 660.743 636.641 89.7542 123.989 -133.154 -36.1188
4 768.966 540.615 88.3121 54.7704 -99.0887 -86.8049
5 722.515 541.726 87.6646 54.0667 -100.589 -130.815
6 809.608 442.912 86.6889 140.379 -108.722 -112.549
7 780.269 574.152 88.7196 59.2347 -101.084 -4.61574
8 744.061 736.125 85.7948 181.373 -121.486 -142.688
9 740.668 751.305 84.4867 195.926 -114.258 28.088
10 725.092 820.981 51.0574 261.956 -250 0
