#Rx
# X(m), Y(m), Z(m), Distance(m), Power (dBm) Phase (deg)
1 697.345 418.248 89.6114 157.093 -250 0
2 698.698 402.3 88.7493 171.008 -154.34 -94.5842
3 821.438 491.71 85.964 110.642 -118.537 26.8783
4 660.302 637.039 89.9369 124.608 -128.239 -60.1148
5 742.892 541.239 87.8856 49.187 -107.818 141.628
6 659.97 543.222 91.5951 100.452 -127.988 115.256
7 757.095 635.803 89.2714 89.747 -109.609 142.531
8 773.321 438.839 88.0992 132.301 -115.404 -55.9802
9 807.844 450.804 86.9055 133.11 -113.352 6.78387
10 722.585 832.195 51.0119 273.332 -250 0
