#Rx
# X(m), Y(m), Z(m), Distance(m), Power (dBm) Phase (deg)
1 675.08 680.641 137.058 168.88 -137.608 85.8397
2 699.191 396.487 137.508 194.806 -134.975 -142.809
3 843.841 471.505 133.065 160.006 -123.597 71.8061
4 673.649 625.001 138.586 136.703 -124.229 114.419
5 834.643 539.045 133.813 128.959 -131.662 -147.955
6 773.272 439.443 136.739 155.416 -115.947 72.9215
7 793.335 515.707 136.563 114.218 -117.098 36.9407
8 751.868 701.202 136.545 169.742 -111.499 56.3224
9 742.105 744.874 133.688 206.166 -113.963 -6.898
10 718.211 563.809 136.926 98.4812 -120.789 -46.7472
