#Rx
# X(m), Y(m), Z(m), Distance(m), Power (dBm) Phase (deg)
1 681.056 610.22 88.8273 94.254 -135.289 -58.3129
2 697.796 412.932 87.7885 161.25 -250 0
3 660.808 636.582 88.4615 123.421 -137.13 68.0635
4 771.746 540.549 87.0551 54.993 -110.164 107.992
5 724.918 541.669 86.4027 52.0181 -112.812 -148.775
6 810.128 440.584 85.3594 142.153 -111.832 -165.584
7 780.921 571.239 87.3858 57.9516 -110.819 -52.6156
8 744.648 733.5 84.7034 178.559 -107.16 -65.2306
9 741.254 748.684 83.395 193.118 -107.791 18.1543
10 725.514 819.092 49.764 260.001 -250 0
