#Rx
# X(m), Y(m), Z(m), Distance(m), Power (dBm) Phase (deg)
1 699.125 397.268 105.532 180.69 -152.917 81.0154
2 752.153 554.198 105.21 63.2544 -101.522 98.8602
3 763.356 540.75 104.93 67.5752 -102.093 103.497
4 758.983 612.892 106.304 83.8689 -110.771 41.7138
5 750.731 706.287 104.652 159.004 -122.511 -9.25974
6 811.854 432.865 103.405 155.584 -112.95 163.959
7 781.318 569.461 105.486 72.809 -106.166 158.165
8 720.459 567.298 105.195 68.0679 -105.005 -144.734
9 717.602 562.866 105.116 68.7928 -103.743 169.951
10 715.728 559.959 105.052 69.4705 -110.02 -79.7738
