#Rx
# X(m), Y(m), Z(m), Distance(m), Power (dBm) Phase (deg)
1 693.695 461.264 138.698 147.425 -120.413 -176.759
2 696.222 431.478 139.237 168.373 -127.253 69.2238
3 728.283 575.726 137.591 97.9742 -137.472 -4.44961
4 749.86 723.629 135.198 188.09 -122.997 -80.3226
5 756.9 638.177 137.901 123.803 -116.856 -11.2218
6 768.305 499.733 136.366 113.736 -115.826 -137.711
7 771.583 459.941 136.411 139.575 -114.156 -113.383
8 773.403 437.853 136.771 156.695 -116.599 17.7514
9 804.622 465.215 135.741 145.294 -114.289 -120.546
10 723.242 571.614 137.388 98.2449 -127.735 44.5346
