#Rx
# X(m), Y(m), Z(m), Distance(m), Power (dBm) Phase (deg)
1 698.978 399.001 137.405 192.703 -131.236 -167.86
2 736.559 568.262 137.324 95.627 -129.773 134.48
3 711.095 591.228 138.399 106.704 -126.101 -143.586
4 823.371 539.315 134.596 122.031 -135.838 81.5069
5 750.061 721.183 135.401 186.072 -115.146 -36.6387
6 815.828 415.088 134.309 185.203 -123.412 -41.0315
7 752.355 699.025 136.695 168.037 -117.79 108.131
8 738.963 758.932 132.606 218.491 -111.96 -171.627
9 788.355 672.616 136.093 152.419 -116.293 105.364
