#Rx
# X(m), Y(m), Z(m), Distance(m), Power (dBm) Phase (deg)
1 677.78 648.828 85.2249 119.866 -144.504 35.9586
2 691.25 490.076 85.0017 98.4446 -118.459 125.004
3 670.461 542.971 86.408 89.0056 -121.397 -139.933
4 772.943 443.432 83.4129 126.435 -115.707 83.5264
5 756.514 642.862 84.6109 93.5309 -110.777 -97.2957
6 758.611 617.4 84.9879 72.5049 -103.279 86.2929
7 767.797 505.901 83.254 71.1387 -105.988 -108.588
8 781.628 662.182 83.3255 115.651 -132.747 164.203
9 770.668 645.181 84.4707 98.1012 -113.173 171.544
10 717.657 562.95 83.6458 50.0309 -111.396 81.1691
