#Rx
# X(m), Y(m), Z(m), Distance(m), Power (dBm) Phase (deg)
1 698.978 399.001 108.894 180.38 -143.48 -88.9433
2 736.559 568.262 108.812 67.4655 -101.855 41.0524
3 711.095 591.228 109.887 82.0455 -122.689 -35.8225
4 823.371 539.315 106.085 102.245 -130.285 101.458
5 750.061 721.183 106.889 173.607 -112.999 137.953
6 815.828 415.088 105.797 172.856 -114.117 -104.455
7 752.355 699.025 108.183 153.881 -122.817 -124.55
8 738.963 758.932 104.095 208.361 -114.001 160.253
9 788.355 672.616 107.581 136.78 -124.415 -13.0651
