#Rx
# X(m), Y(m), Z(m), Distance(m), Power (dBm) Phase (deg)
1 699.208 396.293 137.509 194.966 -132.766 -89.929
2 714.015 588.594 138.112 104.775 -124.057 -93.9709
3 667.136 630.875 138.623 143.101 -130.384 -120.013
4 833.586 539.07 133.886 128.283 -119.857 -160.74
5 717.526 541.845 136.217 99.5928 -122.569 77.9259
6 759.48 606.853 137.967 107.174 -119.494 113.756
7 764.172 549.905 137.213 96.9441 -122.567 -132.493
8 770.357 474.819 136.534 129.178 -114.415 45.9519
9 794.684 509.672 136.429 117.138 -116.256 -101.749
10 781.594 568.227 137.344 101.615 -121.939 161.183
