#Rx
# X(m), Y(m), Z(m), Distance(m), Power (dBm) Phase (deg)
1 699.142 397.067 104.059 180.359 -146.896 -133.796
2 751.028 555.213 103.753 61.6222 -109.542 26.082
3 761.956 540.783 103.438 65.8367 -108.513 94.1319
4 759.073 611.797 104.817 82.0628 -106.544 -59.6605
5 750.466 707.473 103.151 159.512 -109.413 119.906
6 811.564 434.163 101.951 153.835 -118.794 -131.487
7 781.029 570.756 104.03 71.5944 -108.504 -137.84
8 720.089 566.723 103.697 66.774 -113.931 -132.172
9 717.329 562.442 103.647 67.5581 -105.821 -116.509
10 715.665 559.86 103.579 68.1765 -102.854 -69.172
