#Rx
# X(m), Y(m), Z(m), Distance(m), Power (dBm) Phase (deg)
1 681.635 603.385 88.9747 90.4584 -126.564 141.933
2 684.201 573.154 89.5372 78.7558 -121.688 97.8637
3 686.071 551.114 88.8349 76.2575 -122.086 -64.1014
4 826.585 487.068 84.1197 116.375 -115.305 -158.042
5 800.742 510.376 86.0495 85.7538 -113.732 0.663775
6 789.744 520.294 86.7626 73.8053 -112.091 40.6299
7 738.401 566.601 87.3958 45.9872 -125.693 -149.796
8 663.865 633.825 88.6312 119.675 -131.473 -94.4153
9 797.077 498.966 86.2633 90.814 -105.531 -94.2447
10 722.423 832.918 49.804 274.031 -250 0
