#Rx
# X(m), Y(m), Z(m), Distance(m), Power (dBm) Phase (deg)
1 674.379 688.908 92.0393 155.559 -127.536 150.691
2 690.982 493.234 93.7029 100.519 -118.667 -53.1951
3 797.535 513.268 91.6378 85.1588 -125.926 -70.0484
4 733.67 570.868 92.9744 53.0605 -100.286 29.223
5 661.398 543.187 95.7935 101.38 -117.516 -161.056
6 659.347 543.236 95.9177 103.154 -115.929 163.804
7 751.562 702.965 92.0066 151.389 -121.387 -135.039
8 828.466 358.552 86.4522 222.062 -142.22 3.54909
9 811.09 436.282 90.699 147.863 -113.091 122.465
