#Rx
# X(m), Y(m), Z(m), Distance(m), Power (dBm) Phase (deg)
1 694.109 456.376 88.7748 124.779 -134.809 -54.1853
2 696.532 427.825 88.9793 148.578 -250 0
3 725.394 578.332 87.635 52.8742 -112.258 162.239
4 750.217 719.291 85.5575 165.055 -114.844 79.7553
5 757.236 634.097 87.94 87.6315 -103.973 -43.2006
6 768.639 495.672 86.3702 81.0753 -112.005 -135.031
7 771.844 456.775 86.4146 115.108 -105.804 16.0531
8 773.424 437.59 86.7768 133.021 -107.832 -125.072
9 803.753 469.104 85.801 116.062 -105.525 -9.19633
10 721.845 569.447 87.2985 51.7446 -115 -148.755
