#Rx
# X(m), Y(m), Z(m), Distance(m), Power (dBm) Phase (deg)
1 782.095 527.193 136.727 106.082 -122.906 63.2513
2 802.049 539.824 136.118 110.944 -114.557 -95.053
3 762.011 576.128 137.6 97.7552 -130.121 -98.9042
4 763.891 553.307 137.219 96.6028 -125.927 -114.61
5 768.879 492.764 136.374 117.694 -120.5 119.574
6 773.113 441.367 136.7 153.877 -113.171 127.865
7 811.768 433.248 135.146 170.207 -111.298 24.0195
8 808.554 447.624 135.368 158.624 -117.822 42.6217
9 726.039 575.953 137.527 98.3798 -124.015 46.0848
10 718.18 563.761 136.924 98.4862 -136.841 167.849
