#Rx
# X(m), Y(m), Z(m), Distance(m), Power (dBm) Phase (deg)
1 689.252 513.619 87.977 86.2411 -130.02 115.427
2 786.158 523.529 86.6129 69.905 -124.86 119.352
3 668.547 629.602 88.5367 113.845 -129.22 112.972
4 738.089 541.354 86.4749 48.3941 -108.536 172.137
5 763.251 561.073 87.4209 48.1097 -113.277 29.8104
6 765.7 531.349 86.5338 56.0882 -105.527 -10.5297
7 824.213 377.578 82.524 202.472 -131.549 79.7835
8 785.651 550.077 86.9921 60.3998 -107.273 -164.104
9 772.524 608.801 87.807 71.6631 -108.933 -11.7077
10 784.531 666.685 86.3037 121.586 -133.296 165.042
