#Rx
# X(m), Y(m), Z(m), Distance(m), Power (dBm) Phase (deg)
1 684.525 569.33 139.799 115.45 -137.478 -9.88365
2 687.926 529.252 138.167 116.042 -122.944 -82.1138
3 691.884 482.599 138.671 134.773 -117.919 172.537
4 744.931 560.711 137.644 95.1287 -130.268 154.041
5 724.47 541.679 136.705 98.3324 -125.857 -122.274
6 675.585 542.848 139.462 121.035 -122.258 -172.192
7 763.011 563.995 137.764 96.8298 -132.282 -65.1055
8 772.676 446.672 137.039 149.96 -111.955 172.541
9 773.18 440.554 137.024 154.714 -113.224 -70.9651
10 749.656 711.097 136.595 178.025 -111.138 -83.7529
