#Rx
# X(m), Y(m), Z(m), Distance(m), Power (dBm) Phase (deg)
1 683.058 586.615 133.418 113.718 -120.278 -110.523
2 696.126 432.612 133.089 164.065 -127.776 168.207
3 697.796 412.929 131.73 178.638 -138.209 130.037
4 776.509 540.435 130.919 95.5373 -120.654 45.3351
5 761.948 576.901 131.651 92.1073 -121.62 -91.4133
6 762.974 564.438 131.403 90.5945 -133.584 -142.616
7 764.178 549.826 131.192 91.0828 -133.48 89.3062
8 736.152 771.504 125.681 227.478 -133.032 130.818
9 722.936 830.624 93.6058 276.367 -250 0
10 715.569 559.712 130.872 93.4426 -130.987 114.264
