#Rx
# X(m), Y(m), Z(m), Distance(m), Power (dBm) Phase (deg)
1 678.023 645.961 138.5 145.677 -125.54 101.077
2 691.462 487.571 138.286 131.874 -119.895 130.728
3 668.953 543.007 139.758 125.218 -117.394 121.987
4 773.032 442.354 136.68 153.09 -114.978 -48.8706
5 756.687 640.754 137.876 125.409 -119.376 -67.6685
6 758.82 614.86 138.202 111.033 -119.268 -69.7915
7 768.034 503.022 136.502 112.089 -124.271 162.365
8 780.002 659.659 136.719 141.283 -111.792 -69.1553
9 769.18 642.873 137.82 128.4 -114.171 -40.3422
10 717.191 562.228 136.899 98.6997 -127.336 85.2786
