#Rx
# X(m), Y(m), Z(m), Distance(m), Power (dBm) Phase (deg)
1 776.935 531.847 86.8456 60.9423 -102.312 48.2253
2 751.007 555.232 87.2427 45.2504 -118.912 -56.0632
3 738.706 566.326 87.2911 45.797 -122.73 122.714
4 663.838 633.85 88.6309 119.709 -127.795 -86.9258
5 731.916 541.501 86.3942 49.6506 -115.499 -48.3064
6 767.112 514.218 86.3491 66.8013 -105.917 18.1348
7 772.838 444.703 86.6316 126.33 -109.496 106.336
8 758.793 670.226 87.3988 119.696 -106.329 -152.336
9 796.231 502.75 86.3219 87.8583 -106.905 142.368
10 715.279 559.262 87.0755 54.122 -108.291 -42.6283
