#Rx
# X(m), Y(m), Z(m), Distance(m), Power (dBm) Phase (deg)
1 687.989 528.508 90.586 81.6521 -113.299 148.833
2 748.756 737.031 86.8434 182.515 -118.139 34.0946
3 750.103 720.678 88.0577 167.056 -124.637 -48.8692
4 824.387 376.801 84.9404 203.729 -140.006 175.473
5 815.654 415.865 87.1014 166.173 -133.537 -160.279
6 753.323 694.693 89.4499 142.821 -111.266 -73.5465
7 747.866 719.105 88.3863 165.594 -112.033 -125.427
8 736.604 769.485 84.4095 213.838 -117.225 41.1242
9 767.807 640.743 90.477 96.4083 -110.226 -101.807
