#Rx
# X(m), Y(m), Z(m), Distance(m), Power (dBm) Phase (deg)
1 673.303 701.589 80.7938 163.698 -133.548 -68.6903
2 796.01 514.643 81.481 77.9481 -125.676 -107.746
3 760.767 546.429 82.057 44.3295 -95.1282 68.8763
4 727.124 576.772 82.7123 47.4628 -101.992 -66.7886
5 807.709 451.404 80.6708 130.6 -111.227 -175.143
6 804.222 467.006 80.7723 116.192 -106.629 -46.2376
7 785.609 550.265 82.1985 56.9014 -116.025 -124.221
8 758.937 669.581 82.4774 117.353 -107.314 -146.839
9 756.922 623.858 83.1585 76.474 -101.813 -117.255
10 715.665 559.861 82.0319 49.811 -112.63 -160.932
