#Rx
# X(m), Y(m), Z(m), Distance(m), Power (dBm) Phase (deg)
1 679.728 625.867 188.577 173.384 -131.763 147.436
2 685.784 554.492 188.964 158.433 -132.911 90.8191
3 825.654 487.907 184.324 177.903 -126.213 18.845
4 750.505 541.057 186.637 145.423 -139.038 30.1094
5 668.304 543.022 189.764 167.345 -124.18 -53.8916
6 757.032 636.563 187.916 164.689 -129.564 -99.6827
7 759.646 604.838 187.943 152.785 -131.847 -18.0534
8 768.814 493.555 186.373 160.087 -125.596 -5.95613
9 724.991 821.432 149.664 283.314 -250 0
10 800.034 690.733 184.316 200.29 -118.538 120.374
