#Rx
# X(m), Y(m), Z(m), Distance(m), Power (dBm) Phase (deg)
1 699.211 396.253 137.509 194.998 -133.66 111.797
2 712.893 589.607 138.222 105.503 -120.256 40.0043
3 666.548 631.405 138.617 143.685 -125.066 149.182
4 832.351 539.1 133.972 127.5 -121.58 114.787
5 716.1 541.879 136.316 100.097 -121.151 162.679
6 759.596 605.443 137.95 106.565 -119.563 92.0957
7 764.293 548.435 137.167 97.0862 -126.393 126.153
8 770.455 473.63 136.535 129.985 -117.852 -139.56
9 794.348 511.175 136.452 116.379 -118.717 -151.051
10 781.299 569.548 137.362 101.644 -117.338 -151.351
