#Rx
# X(m), Y(m), Z(m), Distance(m), Power (dBm) Phase (deg)
1 688.904 517.727 102.724 93.1185 -116.578 42.5035
2 789.644 520.385 101.472 83.3615 -109.065 -141.722
3 670.321 628.003 103.365 118.547 -131.791 21.4254
4 741.745 541.266 101.334 61.8685 -103.136 -97.113
5 762.9 565.335 102.283 62.3318 -104.196 -11.2178
6 765.369 535.369 101.47 66.7575 -109.704 -26.4773
7 825.131 373.47 97.0246 209.823 -134.23 80.7179
8 786.656 545.584 101.741 73.2626 -111.725 -97.2927
9 773.429 604.754 102.562 79.7486 -103.608 0.515544
10 786.7 670.049 100.916 131.061 -128.188 -46.0478
