#Rx
# X(m), Y(m), Z(m), Distance(m), Power (dBm) Phase (deg)
1 673.509 699.153 132.811 181.025 -135.447 -21.9392
2 687.68 532.15 134.948 112.779 -119.948 148.895
3 696.57 427.372 135.786 169.503 -129.677 -37.5254
4 699.085 397.735 134.385 192.275 -141.039 67.4577
5 659.259 543.239 137.39 129.632 -121.53 -125.686
6 752.524 691.29 133.956 160.123 -109.498 -84.3981
7 817.205 408.925 131.093 189.046 -110.388 114.683
8 803.269 471.267 132.713 138.879 -109.172 -14.5156
9 776.246 592.151 134.554 102.069 -117.567 118.944
10 756.875 678.804 134.039 150.359 -118.561 -162.288
