#Rx
# X(m), Y(m), Z(m), Distance(m), Power (dBm) Phase (deg)
1 687.061 539.449 88.249 77.3758 -113.232 -137.681
2 699.192 396.48 87.4083 175.911 -152.211 -24.1875
3 741.697 563.628 87.3853 45.2134 -131.696 142.336
4 667.589 630.466 88.6674 115.079 -132.265 -13.4732
5 752.153 695.791 86.7079 142.931 -108.739 -47.5967
6 762.114 574.882 87.7256 50.243 -113.052 51.1475
7 819.984 396.494 83.5598 184.098 -131.197 -106.841
8 794.017 512.654 86.3752 80.4383 -110.14 -41.3574
9 780.297 574.03 87.4245 58.2168 -106.864 -43.857
10 732.68 787.038 80.5182 230.581 -113.309 14.4806
