#Rx
# X(m), Y(m), Z(m), Distance(m), Power (dBm) Phase (deg)
1 779.349 529.67 90.8 66.0505 -104.644 171.437
2 797.238 539.939 90.4844 72.9929 -118.759 87.3424
3 762.378 571.674 91.5788 53.0182 -100.599 -150.38
4 764.236 549.126 91.1199 53.032 -107.456 -56.9472
5 769.238 488.406 90.41 89.212 -109.951 169.668
6 773.214 440.137 90.7562 132.038 -115.433 165.403
7 810.939 436.959 89.2348 146.759 -111.833 175.578
8 807.724 451.337 89.4574 133.493 -117.456 90.62
9 724.282 573.228 91.446 55.1365 -108.907 -158.086
10 717.417 562.579 90.9261 56.271 -107.658 113.708
