#Rx
# X(m), Y(m), Z(m), Distance(m), Power (dBm) Phase (deg)
1 774.899 533.684 137.834 103.013 -120.512 165.499
2 749.069 556.98 138.229 95.8024 -120.897 -166.016
3 736.809 568.037 138.277 96.5286 -133.509 156.05
4 663.117 634.5 139.581 147.783 -119.846 -5.31585
5 728.938 541.572 137.312 98.0589 -138.421 39.6123
6 767.369 511.089 137.309 108.781 -122.525 -104.395
7 772.938 443.499 137.613 152.775 -113.409 49.6876
8 758.202 672.87 138.295 148.528 -116.239 49.0821
9 795.637 505.406 137.32 120.128 -117.717 -11.1191
10 715.231 559.188 138.033 100.347 -124.62 84.3632
