#Rx
# X(m), Y(m), Z(m), Distance(m), Power (dBm) Phase (deg)
1 684.645 567.917 94.346 80.7012 -121.705 -154.653
2 688.033 527.983 92.7198 83.0955 -116.001 -126.886
3 691.977 481.507 93.2897 107.967 -121.807 61.0902
4 743.924 561.62 92.2602 49.8063 -105.244 -129.725
5 723.128 541.711 91.2882 56.8823 -105.851 -33.003
6 674.672 542.87 94.1266 89.6879 -118.07 -115.529
7 763.125 562.604 92.3481 52.7499 -97.5489 128.798
8 772.735 445.959 91.6549 127.02 -110.742 98.9061
9 773.212 440.163 91.6332 132.337 -112.326 -137.231
10 749.338 712.522 91.0868 160.101 -110.937 127.627
