#Rx
# X(m), Y(m), Z(m), Distance(m), Power (dBm) Phase (deg)
1 679.589 627.497 98.1115 109.801 -137.276 -66.9401
2 685.681 555.711 98.5626 82.4451 -128.506 -179.035
3 826.617 487.038 93.8095 120.22 -119.214 3.70234
4 751.805 541.026 96.2064 57.2327 -102.696 -59.4511
5 669.123 543.003 99.2584 97.0456 -120.17 -54.5232
6 756.921 637.916 97.4553 95.9565 -107.713 79.071
7 759.526 606.294 97.5121 73.1426 -108.704 -105.502
8 768.698 494.961 95.9232 87.1598 -102.857 124.435
9 725.165 820.652 59.2161 262.016 -250 0
10 800.823 691.957 93.7414 151.795 -250 0
