#Rx
# X(m), Y(m), Z(m), Distance(m), Power (dBm) Phase (deg)
1 689.826 506.859 95.9353 93.9803 -112.74 -151.87
2 695.152 444.09 97.0598 137.822 -139.786 -94.3686
3 749.693 725.653 93.1228 173.248 -110.358 88.0644
4 778.115 583.79 95.5122 66.3712 -115.088 150.936
5 811.214 435.724 93.2365 149.229 -112.621 22.7113
6 791.95 678.193 93.4299 136.648 -130.26 46.4576
7 783.872 665.662 94.4165 123.659 -128.49 -140.16
8 769.999 644.143 95.5889 102.332 -108.681 -87.221
9 717.676 562.98 94.8439 59.5696 -103.531 -19.2581
10 715.247 559.213 95.0283 60.8531 -109.424 -1.39626
