#Rx
# X(m), Y(m), Z(m), Distance(m), Power (dBm) Phase (deg)
1 675.257 678.554 112.003 154.554 -130.023 -117.724
2 699.208 396.293 112.332 184.019 -147.508 -85.4331
3 841.952 473.208 108.019 145.015 -119.624 90.7544
4 672.256 626.257 113.396 121.865 -130.6 -79.2158
5 832.312 539.101 108.798 110.81 -126.385 132.721
6 773.32 438.858 111.574 142.091 -112.755 2.80561
7 792.724 518.441 111.428 93.049 -110.51 87.2331
8 751.199 704.194 111.299 159.841 -119.768 73.5703
9 741.503 747.566 108.304 198.818 -117.046 84.0367
10 717.676 562.98 111.715 74.8235 -107.307 26.5042
