#Rx
# X(m), Y(m), Z(m), Distance(m), Power (dBm) Phase (deg)
1 698.978 399.001 187.405 221.636 -128.983 -73.5848
2 736.559 568.262 187.324 145.343 -136.531 34.2518
3 711.095 591.228 188.399 153.21 -131.327 -147.451
4 823.371 539.315 184.596 163.091 -124.065 152.016
5 750.061 721.183 185.401 215.431 -118.453 55.9262
6 815.828 415.088 184.309 214.426 -119.676 71.0843
7 752.355 699.025 186.695 200.384 -117.209 -178.226
8 738.963 758.932 182.606 243.406 -121.497 123.473
9 788.355 672.616 186.093 187.319 -122.945 3.78814
