#Rx
# X(m), Y(m), Z(m), Distance(m), Power (dBm) Phase (deg)
1 698.209 408.056 142.543 188.082 -127.968 56.7861
2 727.173 541.615 141.431 102.348 -125.777 36.059
3 760.779 591.08 142.877 106.091 -128.088 -177.108
4 763.101 562.898 142.401 101.373 -126.52 -112.542
5 800.696 482.776 140.871 136.482 -121.882 -52.8086
6 791.742 522.831 141.491 115.189 -123.956 -61.9981
7 785.037 552.827 142.129 107.222 -120.181 -75.3846
8 724.389 824.127 104.763 272.22 -250 0
9 722.718 831.602 104.723 279.604 -250 0
10 715.279 559.262 142.034 104.147 -133.794 147.733
