#Rx
# X(m), Y(m), Z(m), Distance(m), Power (dBm) Phase (deg)
1 675.346 677.507 90.25 145.182 -133.492 77.9328
2 699.211 396.253 90.5173 176.934 -150.641 47.9613
3 841.008 474.059 86.2695 135.374 -122.739 -52.2411
4 671.589 626.859 91.575 111.415 -140.13 159.417
5 831.146 539.129 87.0645 98.3332 -122.065 111.796
6 773.341 438.604 89.7649 133.103 -111.569 145.171
7 792.418 519.809 89.6348 77.3913 -124.079 -56.4044
8 750.865 705.689 89.4501 153.137 -109.314 133.142
9 741.202 748.916 86.3859 194.001 -114.713 173.93
10 717.432 562.601 89.9032 55.3872 -106.706 95.6729
