#Rx
# X(m), Y(m), Z(m), Distance(m), Power (dBm) Phase (deg)
1 699.037 398.307 139.198 194.155 -139.267 86.7993
2 734.735 569.907 139.144 97.7777 -128.766 147.789
3 709.434 592.727 140.354 109.448 -126.061 25.0747
4 820.457 539.384 136.591 121.727 -116.673 -74.343
5 748.499 740.142 135.762 202.857 -111.16 164.333
6 750.3 718.291 137.432 184.614 -110.505 -112.15
7 815.192 417.933 136.237 183.719 -112.631 -54.3229
8 751.777 701.607 138.427 171.124 -136.042 -91.5881
9 738.391 761.491 134.201 221.498 -113.533 -149.839
10 787.025 670.554 138.007 151.731 -114.391 -17.9313
