#Rx
# X(m), Y(m), Z(m), Distance(m), Power (dBm) Phase (deg)
1 673.388 700.577 135.749 183.645 -131.989 -176.802
2 687.561 533.556 138.024 115.042 -118.43 132.873
3 696.464 428.63 138.896 170.292 -129.28 26.033
4 699.062 398.015 137.406 193.508 -136.514 -43.0818
5 659.347 543.236 140.411 131.802 -127.197 -90.5605
6 752.415 692.609 136.94 162.913 -113.385 12.9743
7 817.493 407.639 134.053 191.579 -110.689 88.591
8 803.554 469.99 135.715 141.771 -116.277 35.5387
9 776.6 590.568 137.554 104.41 -140.916 -158.492
10 757.216 677.28 137.096 151.078 -109.615 -90.25
