#Rx
# X(m), Y(m), Z(m), Distance(m), Power (dBm) Phase (deg)
1 683.293 616.303 88.7961 96.142 -134.167 19.355
2 660.774 543.202 90.331 99.1525 -124.132 -60.9347
3 755.634 653.535 87.8926 104.403 -105.961 116.975
4 773.244 439.783 86.732 130.953 -108.969 -43.8253
5 773.427 437.561 86.7774 133.049 -105.34 70.632
6 803.317 471.055 85.7312 114.295 -109.007 -71.1887
7 781.884 566.928 87.226 57.7407 -108.813 37.6213
8 778.611 581.573 87.4292 59.543 -104.073 92.1769
9 743.866 736.999 84.2942 181.873 -110.714 112.402
10 731.67 584.688 87.7875 53.5131 -110.992 70.3649
