#Rx
# X(m), Y(m), Z(m), Distance(m), Power (dBm) Phase (deg)
1 689.02 516.359 94.0278 88.34 -113.797 100.105
2 788.482 521.433 92.7388 76.2478 -107.709 60.7488
3 669.71 628.554 94.6417 115.048 -137.821 72.9091
4 740.527 541.295 92.6005 53.7356 -101.921 -13.3571
5 763.018 563.911 93.5485 53.93 -96.1216 3.99794
6 765.479 534.03 92.7112 59.7721 -97.0811 -163.115
7 824.825 374.839 88.4107 206.406 -137.173 -127.204
8 786.321 547.082 93.0443 65.9165 -104.768 94.8229
9 773.127 606.103 93.8633 74.1428 -105.615 122.826
10 785.978 668.929 92.2647 126.246 -138.971 138.031
