#Rx
# X(m), Y(m), Z(m), Distance(m), Power (dBm) Phase (deg)
1 676.705 661.488 188.04 190.464 -128.537 -138.388
2 682.247 596.181 189.13 163.912 -128.15 165.165
3 674.4 542.877 189.337 164.237 -128.132 43.7384
4 751.101 708.562 186.339 206.832 -118.096 -108.075
5 753.86 675.072 187.307 185.11 -130.881 110.02
6 760.912 589.47 187.899 149.08 -131.84 123.293
7 762.459 570.698 187.536 146.335 -141.449 -34.1382
8 723.736 827.048 149.764 288.637 -250 0
9 721.294 568.592 187.263 147.084 -134.844 -144.913
