#Rx
# X(m), Y(m), Z(m), Distance(m), Power (dBm) Phase (deg)
1 699.201 396.371 87.5084 176.035 -147.829 61.9888
2 715.137 587.583 88.0012 61.4943 -116.41 158.347
3 667.751 630.32 88.629 114.863 -133.372 -129.437
4 834.823 539.041 83.8002 100.163 -116.854 7.00194
5 718.953 541.811 86.2247 54.5174 -110.931 -61.2997
6 759.364 608.262 87.9835 67.6346 -109.386 163.563
7 764.05 551.376 87.2587 49.0044 -114.043 51.1248
8 770.259 476.008 86.5327 97.8774 -110.207 -138.211
9 795.02 508.167 86.4058 83.7572 -105.751 171.897
10 781.889 566.909 87.3257 57.8184 -108.094 -170.442
