#Rx
# X(m), Y(m), Z(m), Distance(m), Power (dBm) Phase (deg)
1 699.142 397.067 87.8994 175.504 -166.922 116.268
2 751.028 555.213 87.5941 45.6021 -95.3149 134.506
3 761.956 540.783 87.2788 51.2536 -100.333 -70.3704
4 759.073 611.797 88.6574 70.5847 -105.381 -136.943
5 750.466 707.473 86.9919 154.096 -108.999 153.777
6 811.564 434.163 85.7918 148.343 -125.703 37.5799
7 781.029 570.756 87.8708 58.3016 -103.774 -63.8956
8 720.089 566.723 87.5379 52.3723 -113.508 -80.554
9 717.329 562.442 87.4881 53.3834 -110.269 -43.7294
10 715.665 559.86 87.4199 54.1842 -113.028 175.715
