#Rx
# X(m), Y(m), Z(m), Distance(m), Power (dBm) Phase (deg)
1 684.885 565.084 89.3288 77.1465 -121.575 -62.6251
2 688.249 525.439 87.7136 81.0663 -126.248 -163.638
3 692.163 479.32 88.415 107.302 -160.235 -14.3698
4 741.911 563.436 87.382 45.1753 -116.674 -149.066
5 720.439 541.776 86.3441 53.905 -130.898 123.043
6 672.925 542.912 89.34 88.4518 -115.468 -140.953
7 763.355 559.821 87.406 48.1212 -118.833 -129.299
8 772.846 444.615 86.7733 126.461 -109.418 13.439
9 773.27 439.458 86.7386 131.259 -110.549 154.082
10 748.702 715.364 85.9591 161.344 -108.746 108.385
