#Rx
# X(m), Y(m), Z(m), Distance(m), Power (dBm) Phase (deg)
1 688.787 519.097 109.317 96.9933 -116.919 -64.9502
2 790.808 519.335 108.023 89.1716 -103.566 -131.699
3 670.95 627.435 109.986 121.372 -135.423 65.3968
4 742.961 541.237 107.964 68.1453 -101.716 17.7571
5 762.784 566.753 108.914 68.8116 -104.635 -83.7339
6 765.258 536.712 108.127 72.2289 -109.517 -163.301
7 825.437 372.103 103.536 212.927 -127.657 -13.1144
8 786.99 544.088 108.335 79.1485 -104.877 9.12285
9 773.729 603.408 109.158 84.2221 -100.314 163.636
10 787.423 671.171 107.464 135.248 -124.491 -16.952
