#Rx
# X(m), Y(m), Z(m), Distance(m), Power (dBm) Phase (deg)
1 699.142 397.067 187.408 223.012 -128.582 2.18668
2 751.028 555.213 187.102 144.745 -137.752 123.545
3 761.956 540.783 186.787 146.41 -136.57 88.3246
4 759.073 611.797 188.166 155.131 -125.205 167.259
5 750.466 707.473 186.5 206.149 -120.148 40.0844
6 811.564 434.163 185.3 201.293 -124.986 149.296
7 781.029 570.756 187.379 149.418 -130.865 37.8525
8 720.089 566.723 187.046 146.981 -142.712 -178.691
9 717.329 562.442 186.996 147.31 -139.672 126.446
10 715.665 559.86 186.928 147.557 -136.845 -144.545
