#Rx
# X(m), Y(m), Z(m), Distance(m), Power (dBm) Phase (deg)
1 679.676 626.475 138.71 134.423 -131.041 29.7568
2 690.93 493.844 138.327 128.793 -121.845 65.4013
3 749.55 727.385 134.887 191.21 -119.458 87.7814
4 750.941 710.499 136.423 177.458 -116.246 79.2101
5 765.909 528.812 136.455 100.956 -122.617 103.005
6 769.916 480.179 136.528 125.619 -114.021 -149.6
7 807.861 450.725 135.516 156.255 -115.03 139.232
8 768.438 627.077 137.96 118.79 -120.617 -59.3532
9 729.793 799.949 99.764 247.214 -250 0
10 715.569 559.712 136.93 99.19 -126.428 -25.8617
