#Rx
# X(m), Y(m), Z(m), Distance(m), Power (dBm) Phase (deg)
1 697.01 422.196 97.7329 156.327 -250 0
2 698.544 404.117 96.5901 171.682 -250 0
3 824.462 488.983 93.5975 117.509 -116.263 -73.6834
4 660.499 636.861 97.7892 127.564 -135.113 -110.366
5 747.001 541.141 95.7822 56.5081 -99.8133 -31.9928
6 660.409 543.211 99.4073 104.132 -116.643 15.9914
7 756.802 639.363 97.08 96.9098 -111.204 93.0323
8 773.245 439.762 95.9232 134.354 -112.711 -62.8248
9 808.729 446.84 94.6871 139.503 -112.173 42.2151
10 722.699 831.685 58.8548 273.171 -250 0
