#Rx
# X(m), Y(m), Z(m), Distance(m), Power (dBm) Phase (deg)
1 684.525 569.33 89.491 77.9241 -118.018 -154.556
2 687.926 529.252 87.8593 79.8336 -111.231 79.6999
3 691.884 482.599 88.3636 104.98 -121.244 116.372
4 744.931 560.711 87.3358 44.8306 -119.638 -60.203
5 724.47 541.679 86.3968 52.1924 -114.325 -24.0866
6 675.585 542.848 89.1537 86.179 -113.788 158.679
7 763.011 563.995 87.4558 48.2103 -121.979 30.0185
8 772.676 446.672 86.7313 124.536 -108.371 178.963
9 773.18 440.554 86.7163 130.227 -108.438 77.228
10 749.656 711.097 86.2875 157.349 -108.591 19.5221
