#Rx
# X(m), Y(m), Z(m), Distance(m), Power (dBm) Phase (deg)
1 687.945 529.03 132.875 111.772 -123.409 -169.2
2 698.923 399.648 132.469 189.787 -144.898 137.687
3 785.157 524.431 131.623 103.621 -121.98 -40.4742
4 749.49 728.116 129.851 189.476 -111.167 65.6681
5 758.491 618.861 133.151 108.784 -118.544 40.8951
6 771.985 455.059 131.344 139.918 -116.125 10.479
7 817.298 408.511 129.019 188.451 -111.077 146.039
8 752.817 696.957 131.567 163.501 -115.754 -94.5956
9 722.585 832.196 94.5883 278.118 -250 0
