#Rx
# X(m), Y(m), Z(m), Distance(m), Power (dBm) Phase (deg)
1 681.291 607.444 88.8871 92.6702 -131.241 157.563
2 697.95 411.115 87.6603 162.828 -250 0
3 660.743 636.641 88.4608 123.502 -133.759 173.273
4 768.966 540.615 87.0187 53.6938 -106.194 115.329
5 722.515 541.726 86.3713 52.9916 -108.52 -51.8334
6 809.608 442.912 85.3955 139.977 -109.797 2.94539
7 780.269 574.152 87.4262 58.2317 -116.376 -64.6429
8 744.061 736.125 84.5014 181.069 -105.25 146.977
9 740.668 751.305 83.1933 195.653 -108.017 -103.829
10 725.092 820.981 49.764 261.917 -250 0
