#Rx
# X(m), Y(m), Z(m), Distance(m), Power (dBm) Phase (deg)
1 681.173 608.832 88.8572 93.4553 -128.76 -142.89
2 697.874 412.012 87.7235 162.048 -250 0
3 660.765 636.621 88.461 123.475 -134.775 118.925
4 770.356 540.582 87.0369 54.3294 -105.814 52.5921
5 723.715 541.697 86.3869 52.494 -104.47 -151.78
6 809.868 441.748 85.3775 141.064 -109.83 178.229
7 780.596 572.693 87.406 58.0724 -108.468 -117.217
8 744.354 734.813 84.6024 179.813 -107.131 -77.866
9 740.96 749.995 83.2941 194.386 -124.073 -177.995
10 725.299 820.055 49.764 260.978 -250 0
