#Rx
# X(m), Y(m), Z(m), Distance(m), Power (dBm) Phase (deg)
1 682.548 592.633 89.3465 85.3434 -130.159 -121.067
2 683.89 576.82 89.5474 79.6987 -121.736 174.068
3 688.976 516.878 87.8259 84.6377 -112.685 47.4326
4 659.882 543.224 90.2534 99.8795 -116.38 -67.2388
5 754.189 671.083 87.4224 120.094 -103.77 -35.7131
6 755.452 655.75 87.8713 106.366 -107.323 18.7538
7 760.524 594.182 87.8156 58.5721 -106.976 -105.961
8 772.69 446.504 86.7348 124.693 -108.458 -8.43596
9 799.832 486.644 85.9726 100.83 -104.516 -151.09
10 779.218 578.854 87.5315 59.031 -107.273 -84.1699
