#Rx
# X(m), Y(m), Z(m), Distance(m), Power (dBm) Phase (deg)
1 673.752 696.298 186 210.672 -130.715 -83.7317
2 687.918 529.344 187.863 159.489 -131.177 -69.1822
3 696.784 424.859 188.63 205.018 -126.353 -147.354
4 699.126 397.257 187.407 222.876 -136.024 34.6857
5 659.17 543.241 190.411 172.311 -137.589 -156.091
6 752.742 688.647 187.054 193.61 -125.253 -47.269
7 816.629 411.504 184.238 217.077 -119.152 167.462
8 802.697 473.824 185.774 176.526 -126.115 -15.0639
9 775.54 595.31 187.62 152.225 -129.387 73.4788
10 756.194 681.852 186.991 189.269 -124.239 -51.5342
