#Rx
# X(m), Y(m), Z(m), Distance(m), Power (dBm) Phase (deg)
1 681.925 599.971 94.7938 91.8447 -129.952 125.43
2 684.544 569.112 95.1283 81.4074 -120.744 20.6025
3 686.398 547.262 94.4332 80.0582 -109.166 -107.616
4 824.063 489.342 90.0399 115.517 -118.781 -43.4151
5 797.706 513.114 92.0054 85.5584 -114.491 -137.896
6 786.726 523.017 92.4663 74.3011 -106.968 -154.071
7 735.265 569.43 93.1894 52.6422 -104.929 -12.8909
8 662.807 634.779 94.3665 123.291 -133.778 -112.28
9 796.138 503.167 92.0739 90.5483 -106.807 -23.6419
10 722.385 833.089 55.5496 274.418 -250 0
