#Rx
# X(m), Y(m), Z(m), Distance(m), Power (dBm) Phase (deg)
1 677.508 652.031 188.295 185.5 -130.739 20.6247
2 699.059 398.039 187.546 222.411 -136.36 18.287
3 742.243 541.254 186.669 145.408 -138.788 -154.27
4 725.638 541.651 186.452 146.515 -138.878 -19.8992
5 768.072 502.565 186.362 156.447 -129.374 49.8859
6 770.849 468.856 186.541 172.237 -133.508 -50.5303
7 773.419 437.649 186.776 191.129 -120.104 154.113
8 758.71 670.593 187.25 182.588 -130.95 168.869
9 724.623 823.076 149.804 284.913 -250 0
10 799.745 690.285 184.363 199.953 -121.726 -55.8959
