#Rx
# X(m), Y(m), Z(m), Distance(m), Power (dBm) Phase (deg)
1 677.614 650.777 138.308 148.634 -122.809 -116.332
2 699.088 397.705 137.547 193.829 -132.845 79.2828
3 740.663 541.292 136.649 96.1145 -129.492 -84.5044
4 724.148 541.687 136.433 98.1417 -134.276 38.336
5 768.164 501.448 136.364 112.807 -117.068 -119.835
6 770.956 467.554 136.542 134.196 -117.724 -166.916
7 773.424 437.59 136.777 156.907 -113.533 -134.422
8 758.438 671.81 137.222 147.051 -110.565 -41.9123
9 724.466 823.781 99.804 270.787 -250 0
10 799.087 689.264 134.469 167.277 -114.041 -119.984
