#Rx
# X(m), Y(m), Z(m), Distance(m), Power (dBm) Phase (deg)
1 673.111 703.842 85.698 166.935 -130.565 -148.718
2 682.629 591.675 89.2271 84.8552 -146.874 96.4208
3 687.863 529.99 87.8875 79.6141 -108.912 158.774
4 723.466 580.071 87.6645 54.2985 -121.916 -2.87773
5 753.21 682.959 87.1789 131.015 -108.478 65.9558
6 755.332 657.201 87.8573 107.658 -101.913 169.325
7 768.39 627.292 87.9588 84.2255 -107.168 -97.6024
8 750.687 706.487 86.4229 152.995 -116.681 -0.88543
9 724.204 824.952 49.764 265.945 -250 0
10 780.441 660.34 86.6789 114.909 -126.209 -176.545
