#Rx
# X(m), Y(m), Z(m), Distance(m), Power (dBm) Phase (deg)
1 683.293 616.303 104.704 104.731 -129.642 -125.309
2 660.774 543.202 106.239 107.728 -117.138 122.647
3 755.634 653.535 103.801 112.234 -106.172 154.077
4 773.244 439.783 102.64 137.143 -111.723 -165.898
5 773.427 437.561 102.685 139.151 -112.513 170.799
6 803.317 471.055 101.639 121.207 -107.934 -7.06696
7 781.884 566.928 103.134 70.7764 -103.194 147.811
8 778.611 581.573 103.337 72.299 -108.682 -74.1224
9 743.866 736.999 100.202 186.172 -112.748 -83.648
10 731.67 584.688 103.695 67.5042 -106.073 116.816
