#Rx
# X(m), Y(m), Z(m), Distance(m), Power (dBm) Phase (deg)
1 699.191 396.488 142.423 197.249 -134.991 28.5338
2 716.258 586.572 142.806 107.922 -122.37 -139.034
3 668.395 629.739 143.55 145.232 -127.939 2.68444
4 836.057 539.011 138.629 133.368 -124.267 2.05788
5 720.382 541.777 141.158 103.524 -123.824 88.9896
6 759.248 609.674 142.915 112.789 -124.012 83.5903
7 763.929 552.851 142.219 101.547 -137.177 -22.2926
8 770.161 477.199 141.446 131.246 -111.977 69.4522
9 795.356 506.666 141.297 122.625 -128.772 -134.485
10 782.184 565.587 142.222 106.209 -121.716 -123.821
