#Rx
# X(m), Y(m), Z(m), Distance(m), Power (dBm) Phase (deg)
1 697.124 420.845 188.447 207.477 -130.848 154.487
2 698.597 403.486 187.4 218.479 -129.544 152.256
3 823.455 489.891 184.476 176.253 -126.918 -160.472
4 660.411 636.94 188.598 185.965 -127.745 54.2426
5 745.631 541.173 186.574 145.276 -136.128 -122.452
6 660.235 543.215 190.229 171.622 -128.574 -139.406
7 756.899 638.178 187.901 165.424 -129.358 -147.372
8 773.273 439.427 186.739 189.947 -121.886 3.42179
9 808.435 448.16 185.517 191.972 -120.566 -163.62
10 722.655 831.883 149.664 293.163 -250 0
