#Rx
# X(m), Y(m), Z(m), Distance(m), Power (dBm) Phase (deg)
1 697.01 422.196 145.717 178.994 -134.273 117.484
2 698.544 404.117 144.574 192.265 -141.605 118.582
3 824.462 488.983 141.582 144.956 -124.448 107.219
4 660.499 636.861 145.774 154.527 -125.347 -67.8127
5 747.001 541.141 143.767 102.989 -129.252 36.5146
6 660.409 543.211 147.392 136.4 -121.067 78.7682
7 756.802 639.363 145.064 130.114 -116.651 -107.734
8 773.245 439.762 143.908 159.619 -114.686 -94.2462
9 808.729 446.84 142.671 163.614 -119.203 -7.5097
10 722.699 831.685 106.839 280.165 -250 0
