#Rx
# X(m), Y(m), Z(m), Distance(m), Power (dBm) Phase (deg)
1 674.495 687.543 95.3544 155.471 -130.059 126.521
2 691.104 491.795 96.9605 103.096 -119.072 -1.58269
3 796.478 514.221 94.946 85.9762 -113.792 -66.2618
4 732.754 571.694 96.2235 56.5322 -104.929 25.7621
5 661.063 543.195 99.0519 103.403 -119.026 83.0976
6 659.259 543.239 99.1527 104.937 -131.301 -97.16
7 751.673 701.622 95.2805 151.236 -108.714 28.1237
8 828.132 360.047 89.8003 221.274 -120.794 -76.1467
9 810.789 437.628 93.9549 147.708 -114.375 116.935
