#Rx
# X(m), Y(m), Z(m), Distance(m), Power (dBm) Phase (deg)
1 681.173 608.832 188.857 167.334 -127.949 68.0956
2 697.874 412.012 187.724 212.837 -149.423 136.138
3 660.765 636.621 188.461 185.563 -136.76 55.7542
4 770.356 540.582 187.037 147.832 -135.132 30.5303
5 723.715 541.697 186.387 146.725 -139.302 67.3754
6 809.868 441.748 185.377 196.137 -120.595 -134.418
7 780.596 572.693 187.406 149.495 -130.513 33.495
8 744.354 734.813 184.602 225.275 -118.124 123.86
9 740.96 749.995 183.294 236.516 -120.386 -76.4068
10 725.299 820.055 149.764 282.06 -250 0
