#Rx
# X(m), Y(m), Z(m), Distance(m), Power (dBm) Phase (deg)
1 698.093 409.429 97.2407 167.214 -250 0
2 699.169 396.744 97.1074 178.396 -143.163 111.023
3 662.224 635.305 98.3147 125.706 -133.115 -44.7609
4 679.073 542.765 98.6089 89.0049 -120.515 -85.5943
5 668.827 543.01 99.3265 97.3188 -115.81 94.2891
6 758.197 622.423 97.7519 84.235 -106.665 -27.122
7 817.208 408.914 93.7132 174.694 -132.337 146.966
8 795.225 507.252 95.991 89.8012 -105.023 167.556
9 729.736 581.688 97.3631 61.1739 -101.992 -83.5205
