#Rx
# X(m), Y(m), Z(m), Distance(m), Power (dBm) Phase (deg)
1 699.086 397.728 138.976 194.516 -137.815 46.8686
2 732.912 571.551 138.949 97.9926 -128.93 -42.9283
3 707.772 594.225 140.295 110.418 -118.863 10.1681
4 817.544 539.454 136.57 119.94 -118.385 -107.167
5 748.743 737.184 135.784 200.248 -118.369 -60.64
6 750.538 715.397 137.449 182.153 -116.106 146.826
7 814.555 420.782 136.15 181.238 -113.181 -160.619
8 751.2 704.189 138.145 173.092 -113.145 177.855
9 737.82 764.044 133.782 223.671 -116.984 51.894
10 785.693 668.487 137.906 149.809 -114.057 -95.2208
