#Rx
# X(m), Y(m), Z(m), Distance(m), Power (dBm) Phase (deg)
1 693.971 458.005 96.6146 126.633 -140.086 -18.8866
2 696.429 429.044 96.9306 150.223 -250 0
3 726.356 577.464 95.4856 59.1257 -105.211 -39.5137
4 750.098 720.74 93.3027 168.62 -119.564 -40.971
5 757.124 635.456 95.7922 93.032 -109.513 -97.9107
6 768.528 497.025 94.234 84.5415 -104.312 168.234
7 771.759 457.802 94.2788 117.416 -112.26 -19.9432
8 773.419 437.649 94.6409 135.786 -111.389 65.7048
9 804.043 467.806 93.6462 120.342 -110.331 -4.29222
10 722.297 570.147 95.1927 58.6418 -105.587 -86.6325
