#Rx
# X(m), Y(m), Z(m), Distance(m), Power (dBm) Phase (deg)
1 677.508 652.031 138.295 149.443 -125.018 129.713
2 699.059 398.039 137.546 193.557 -136.903 -100.846
3 742.243 541.254 136.669 96.0673 -120.946 3.08985
4 725.638 541.651 136.452 97.846 -124.048 -62.0248
5 768.072 502.565 136.362 112.212 -117.948 -103.343
6 770.849 468.856 136.541 133.281 -117.813 -142.769
7 773.419 437.649 136.776 156.86 -115.381 53.883
8 758.71 670.593 137.25 146.17 -117.955 86.127
9 724.623 823.076 99.804 270.087 -250 0
10 799.745 690.285 134.363 168.218 -113.109 117.902
