#Rx
# X(m), Y(m), Z(m), Distance(m), Power (dBm) Phase (deg)
1 677.901 647.393 138.713 146.722 -128.436 73.264
2 691.356 488.823 138.494 131.387 -116.661 -39.5363
3 669.692 542.989 139.934 124.904 -130.338 -39.6251
4 772.989 442.88 136.897 152.813 -117.372 136.796
5 756.6 641.807 138.094 126.247 -117.481 -33.7115
6 758.716 616.129 138.445 111.862 -119.454 -29.743
7 767.915 504.462 136.728 111.532 -118.89 0.432915
8 780.816 660.922 136.873 142.475 -116.869 22.2565
9 769.924 644.026 138.012 129.425 -115.132 -75.5806
10 717.416 562.577 137.123 98.8568 -128.418 -50.9144
