#Rx
# X(m), Y(m), Z(m), Distance(m), Power (dBm) Phase (deg)
1 687.989 528.508 102.039 88.8774 -111.808 132.713
2 748.756 737.031 98.2968 185.629 -112.213 174.913
3 750.103 720.678 99.5111 170.534 -112.083 165.331
4 824.387 376.801 96.3938 206.418 -152.141 5.38061
5 815.654 415.865 98.5548 169.605 -123.553 -144.069
6 753.323 694.693 100.903 146.983 -109.426 177.122
7 747.866 719.105 99.8397 169.125 -110.029 -96.3538
8 736.604 769.485 95.8629 216.373 -113.661 141.502
9 767.807 640.743 101.93 102.587 -108.919 -135.597
