#Rx
# X(m), Y(m), Z(m), Distance(m), Power (dBm) Phase (deg)
1 698.066 409.744 100.285 167.961 -250 0
2 729.903 541.549 99.0891 61.6375 -105.021 16.6766
3 760.55 593.861 100.533 68.7269 -109.027 -85.5946
4 762.832 566.162 100.063 60.2665 -106.875 115.021
5 801.24 480.345 98.4562 111.914 -107.266 128.276
6 792.364 520.049 99.0709 83.3267 -104.76 -91.0899
7 785.619 550.22 99.7153 70.2583 -103.08 32.8032
8 724.71 822.687 62.3852 264.296 -250 0
9 722.86 830.965 62.3452 272.673 -250 0
10 715.391 559.435 99.6545 64.8167 -104.245 -169.306
