#Rx
# X(m), Y(m), Z(m), Distance(m), Power (dBm) Phase (deg)
1 698.066 409.744 187.704 214.363 -140.16 141.127
2 729.903 541.549 186.508 146.051 -144.772 -86.2414
3 760.55 593.861 187.952 150.026 -132.724 -165.818
4 762.832 566.162 187.482 146.062 -138.568 104.195
5 801.24 480.345 185.875 173.049 -122.336 20.5876
6 792.364 520.049 186.49 156.435 -125.856 71.5316
7 785.619 550.22 187.134 150.258 -141.099 112.726
8 724.71 822.687 149.804 284.547 -250 0
9 722.86 830.965 149.764 292.332 -250 0
10 715.391 559.435 187.073 147.756 -137.412 -86.6936
