#Rx
# X(m), Y(m), Z(m), Distance(m), Power (dBm) Phase (deg)
1 673.533 698.876 85.849 162.527 -151.331 116.334
2 794.18 516.293 86.5039 78.5231 -110.826 -133.125
3 758.864 548.145 86.9823 47.7767 -121.562 -172.262
4 724.907 578.771 87.6425 53.2257 -112.867 43.4302
5 807.124 454.024 85.6075 129.705 -114.181 -80.0395
6 803.635 469.628 85.7091 115.559 -103.107 -99.5588
7 785.048 552.777 87.1296 59.721 -112.144 -102.998
8 758.4 671.983 87.3183 121.245 -104.861 108.119
9 755.38 621.466 88.1018 77.0936 -106.757 -153.827
10 715.585 559.737 86.9296 53.824 -114.297 -92.8588
