#Rx
# X(m), Y(m), Z(m), Distance(m), Power (dBm) Phase (deg)
1 674.379 688.908 136.533 174.885 -125.062 -178.008
2 690.982 493.234 138.197 128.988 -120.41 143.518
3 797.535 513.268 136.132 116.629 -117.071 -124.722
4 733.67 570.868 137.468 96.3567 -148.145 -85.5272
5 661.398 543.187 140.287 130.376 -123.758 162.99
6 659.347 543.236 140.411 131.802 -127.153 -100.856
7 751.562 702.965 136.5 171.177 -113.611 -50.1326
8 828.466 358.552 130.946 234.948 -113.215 -106.306
9 811.09 436.282 135.193 167.721 -122.226 -90.5537
