#Rx
# X(m), Y(m), Z(m), Distance(m), Power (dBm) Phase (deg)
1 674.991 681.687 136.996 169.632 -136.243 173.532
2 699.178 396.643 137.508 194.679 -137.539 71.1458
3 844.784 470.654 132.999 161.018 -122.98 -17.0602
4 674.377 624.344 138.593 136.012 -130.769 16.8723
5 835.813 539.017 133.731 129.713 -128.405 -50.0439
6 773.244 439.778 136.732 155.147 -113.639 -4.76894
7 793.641 514.338 136.541 114.865 -130.42 -153.212
8 752.202 699.708 136.579 168.533 -111.411 37.5407
9 742.407 743.526 133.792 204.999 -111.175 174.536
10 718.501 564.26 136.944 98.4359 -129.349 -69.6268
