#Rx
# X(m), Y(m), Z(m), Distance(m), Power (dBm) Phase (deg)
1 678.266 643.091 89.7258 117.132 -126.612 106.065
2 691.675 485.064 89.5194 103.804 -120.489 111.593
3 667.556 543.04 91.0506 93.7872 -124.174 125.371
4 773.112 441.386 87.8938 129.856 -111.655 125.489
5 756.861 638.641 89.0907 92.0376 -110.354 -59.2612
6 759.03 612.32 89.3664 71.424 -108.627 -96.5433
7 768.271 500.145 87.6996 78.227 -105.178 -135.927
8 778.377 657.139 88.0627 112.063 -130.051 23.7305
9 767.691 640.562 89.06 95.5323 -112.465 28.3826
10 716.781 561.592 88.1013 54.1627 -113.678 -169.014
