#Rx
# X(m), Y(m), Z(m), Distance(m), Power (dBm) Phase (deg)
1 679.479 628.801 107.059 115.428 -128.989 -10.4195
2 690.687 496.714 106.656 105.725 -122.074 -20.0894
3 749.347 729.853 103.057 180.348 -112.488 -36.2326
4 750.737 712.987 104.594 165.167 -110.753 55.5429
5 765.735 530.924 104.895 71.5896 -103.727 -134.852
6 769.706 482.722 104.899 102.101 -108.165 22.4489
7 808.418 448.235 103.852 141.946 -109.054 -4.71434
8 768.995 624.586 106.354 93.6716 -108.098 -144.531
9 730.365 797.391 68.1381 239.28 -119.265 125.852
10 715.618 559.788 105.303 69.7451 -105.277 -96.0225
