#Rx
# X(m), Y(m), Z(m), Distance(m), Power (dBm) Phase (deg)
1 674.991 681.687 86.9963 147.742 -127.086 118.149
2 699.178 396.643 87.5081 175.788 -146.166 175.253
3 844.784 470.654 82.9993 139.21 -114.623 176.403
4 674.377 624.344 88.5934 106.735 -155.832 104.543
5 835.813 539.017 83.7314 101.018 -117.401 143.218
6 773.244 439.778 86.7321 130.957 -109.666 -22.2264
7 793.641 514.338 86.5413 79.3235 -111.805 53.5629
8 752.202 699.708 86.5792 146.621 -105.525 -17.8449
9 742.407 743.526 83.7919 188.143 -112.105 88.1116
10 718.501 564.26 86.9444 52.417 -110.7 162.775
