#Rx
# X(m), Y(m), Z(m), Distance(m), Power (dBm) Phase (deg)
1 673.303 701.589 85.69 164.911 -141.413 99.48
2 796.01 514.643 86.3772 80.5069 -130.375 164.872
3 760.767 546.429 86.9532 48.7464 -121.965 131.405
4 727.124 576.772 87.6085 51.6744 -114.552 -156.208
5 807.709 451.404 85.567 132.113 -105.5 -152.743
6 804.222 467.006 85.6685 117.895 -106.159 39.7855
7 785.609 550.265 87.0947 60.4173 -120.403 -81.1776
8 758.937 669.581 87.3736 119.109 -104.268 -15.0646
9 756.922 623.858 88.0547 79.1843 -107.242 9.05713
10 715.665 559.861 86.9281 53.7772 -115.327 20.0688
