#Rx
# X(m), Y(m), Z(m), Distance(m), Power (dBm) Phase (deg)
1 699.201 396.371 136.574 194.448 -137.918 90.79
2 715.137 587.583 137.067 103.207 -122.084 -142.321
3 667.751 630.32 137.695 141.864 -132.345 -9.70312
4 834.823 539.041 132.866 128.415 -118.823 -13.8542
5 718.953 541.811 135.29 98.3262 -122.412 -22.5859
6 759.364 608.262 137.049 106.972 -121.726 -15.8497
7 764.05 551.376 136.324 95.9103 -129.328 36.0646
8 770.259 476.008 135.598 127.695 -121.757 -41.1336
9 795.02 508.167 135.471 117.171 -114.057 81.2646
10 781.889 566.909 136.391 100.732 -123.441 29.1384
