#Rx
# X(m), Y(m), Z(m), Distance(m), Power (dBm) Phase (deg)
1 689.933 505.597 87.4625 90.1263 -115.314 98.3357
2 695.287 442.494 88.5922 136.021 -136.955 -67.0152
3 749.783 724.556 84.7211 169.922 -109.174 12.7234
4 777.849 584.979 87.0361 60.1638 -105.132 3.97517
5 810.924 437.023 84.764 145.336 -120.233 59.9267
6 791.214 677.051 85.0559 132.492 -132.983 -107.35
7 783.141 664.529 85.9909 119.144 -124.21 -159.973
8 769.368 643.165 87.1338 97.2241 -108.287 156.383
9 717.432 562.602 86.354 52.3831 -110.619 40.7334
10 715.231 559.188 86.536 53.7073 -111.772 46.9499
