#Rx
# X(m), Y(m), Z(m), Distance(m), Power (dBm) Phase (deg)
1 686.717 543.497 88.4037 76.7581 -112.824 -27.4771
2 699.17 396.742 87.408 175.673 -142.115 100.053
3 745.094 560.564 87.3333 44.8224 -124.002 -152.578
4 669.309 628.915 88.6841 112.967 -133.922 36.1236
5 751.735 700.866 86.5611 147.701 -112.49 -99.1013
6 761.72 579.669 87.7826 51.7914 -114.095 95.9812
7 820.821 392.753 83.3809 187.72 -132.754 49.2339
8 794.903 508.691 86.3139 83.3171 -104.099 -103.935
9 781.084 570.51 87.3757 57.9054 -112.511 58.72
10 733.534 783.215 80.8712 226.827 -113.653 149.877
