#Rx
# X(m), Y(m), Z(m), Distance(m), Power (dBm) Phase (deg)
1 682.792 589.759 189.408 162.653 -135.15 93.5137
2 684.134 573.942 189.567 160.136 -130.108 74.1883
3 689.205 514.173 187.868 162.637 -131.854 -75.9211
4 659.794 543.226 190.26 171.869 -130.351 124.714
5 754.373 668.851 187.487 181.475 -119.309 101.454
6 755.637 653.497 187.893 173.109 -129.604 -55.149
7 760.719 591.809 187.787 149.432 -142.228 79.5806
8 772.803 445.134 186.763 186.326 -117.526 -33.0467
9 799.287 489.079 186.01 168.694 -119.34 -28.2542
10 778.436 582.355 187.58 150.31 -133.043 -162.992
