#Rx
# X(m), Y(m), Z(m), Distance(m), Power (dBm) Phase (deg)
1 686.717 543.497 106.522 88.7838 -112.49 -71.6752
2 699.17 396.742 105.526 181.151 -140.709 -126.185
3 745.094 560.564 105.451 62.9365 -104.1 -33.5916
4 669.309 628.915 106.802 121.501 -127.918 -17.1128
5 751.735 700.866 104.679 154.076 -111.677 -152.046
6 761.72 579.669 105.9 68.1952 -104.01 48.7704
7 820.821 392.753 101.499 192.478 -117.019 103.18
8 794.903 508.691 104.432 94.1104 -104.026 -62.5574
9 781.084 570.51 105.493 72.8459 -110.771 17.6277
10 733.534 783.215 98.989 230.583 -117.232 -158.948
