#Rx
# X(m), Y(m), Z(m), Distance(m), Power (dBm) Phase (deg)
1 674.262 690.279 107.89 162.455 -123.858 -40.5602
2 690.86 494.671 109.611 108.669 -117.171 -126.892
3 798.59 512.316 107.495 96.2334 -107.798 -83.8885
4 734.588 570.04 108.891 68.0858 -105.962 -17.375
5 661.757 543.179 111.699 110.295 -117.43 -163.248
6 659.463 543.234 111.848 112.141 -140.979 -105.868
7 751.452 704.304 107.899 158.516 -110.591 -122.172
8 811.391 434.933 106.609 154.999 -111.42 -67.2092
