#Rx
# X(m), Y(m), Z(m), Distance(m), Power (dBm) Phase (deg)
1 782.095 527.193 86.7265 65.826 -107.591 155.585
2 802.049 539.824 86.1185 73.8176 -120.381 -92.3344
3 762.011 576.128 87.6004 50.4817 -108.814 142.494
4 763.891 553.307 87.2189 48.6062 -115.108 -11.8114
5 768.879 492.764 86.3735 83.4681 -106.291 176.214
6 773.113 441.367 86.6997 129.462 -110.015 75.9184
7 811.768 433.248 85.1459 149.024 -117.927 -107.838
8 808.554 447.624 85.3684 135.562 -106.851 13.4046
9 726.039 575.953 87.527 51.7517 -113.29 39.7487
10 718.18 563.761 86.9238 52.531 -116.997 -14.2576
