#Rx
# X(m), Y(m), Z(m), Distance(m), Power (dBm) Phase (deg)
1 689.719 508.122 134.713 119.824 -120.621 58.0447
2 695.014 445.715 135.832 156.1 -129.832 169.037
3 749.603 726.75 131.83 189.193 -116.961 9.75679
4 778.381 582.598 134.293 99.9047 -124.466 41.1115
5 811.505 434.425 132.014 167.537 -112.448 -172.04
6 792.688 679.337 132.109 156.354 -115.138 147.073
7 784.596 666.786 133.148 145.278 -113.858 -40.6327
8 770.629 645.12 134.329 127.594 -116.579 127.738
9 717.934 563.38 133.658 95.4183 -130.192 38.4256
10 715.279 559.262 133.825 96.3346 -134.722 -157.351
