#Rx
# X(m), Y(m), Z(m), Distance(m), Power (dBm) Phase (deg)
1 698.066 409.744 87.7036 164.06 -250 0
2 729.903 541.549 86.5079 50.3403 -115.226 -152.845
3 760.55 593.861 87.9518 58.498 -109.769 -130.819
4 762.832 566.162 87.4816 48.3996 -113.82 73.4833
5 801.24 480.345 85.875 106.187 -115.033 23.234
6 792.364 520.049 86.4897 75.3575 -110.339 53.11
7 785.619 550.22 87.1341 60.4602 -140.841 128.37
8 724.71 822.687 49.804 263.649 -250 0
9 722.86 830.965 49.764 272.048 -250 0
10 715.391 559.435 87.0733 54.055 -114.139 -172.507
