#Rx
# X(m), Y(m), Z(m), Distance(m), Power (dBm) Phase (deg)
1 673.303 701.589 135.69 184.425 -131.848 -133.307
2 796.01 514.643 136.377 115.615 -117.167 -170.487
3 760.767 546.429 136.953 96.5359 -123.299 61.4635
4 727.124 576.772 137.609 98.3806 -128.22 23.3285
5 807.709 451.404 135.567 155.75 -111.327 70.1475
6 804.222 467.006 135.669 143.923 -111.963 132.078
7 785.609 550.265 137.095 102.992 -124.984 -84.8114
8 758.937 669.581 137.374 145.506 -116.037 144.089
9 756.922 623.858 138.055 115.426 -122.729 114.943
10 715.665 559.861 136.928 99.1587 -127.676 -96.4554
