#Rx
# X(m), Y(m), Z(m), Distance(m), Power (dBm) Phase (deg)
1 698.361 406.268 87.3968 167.083 -250 0
2 699.194 396.45 87.4083 175.937 -147.584 143.177
3 661.255 636.18 88.6058 122.917 -132.594 52.8608
4 675.198 542.857 89.1808 86.5083 -128.261 65.2312
5 666.245 543.072 89.8078 94.251 -112.424 -10.841
6 758.647 616.962 88.0872 74.0313 -111.036 -70.3083
7 816.174 413.538 84.2349 167.677 -140.364 66.0277
8 793.886 513.241 86.3843 80.02 -112.625 43.3198
9 802.499 694.557 83.7711 151.655 -250 0
10 727.268 577.859 87.5056 51.8962 -110.417 31.9697
