#Rx
# X(m), Y(m), Z(m), Distance(m), Power (dBm) Phase (deg)
1 699.125 397.268 99.3153 178.617 -141.859 28.1051
2 752.153 554.198 98.9931 57.0994 -97.1711 -179.909
3 763.356 540.75 98.7134 61.8798 -105.578 -135.733
4 758.983 612.892 100.087 79.244 -112.043 26.1597
5 750.731 706.287 98.4355 156.679 -111.631 95.7582
6 811.854 432.865 97.1879 153.258 -111.241 39.409
7 781.318 569.461 99.2691 67.5051 -105.978 86.4386
8 720.459 567.298 98.9778 62.3912 -108.691 31.8808
9 717.602 562.866 98.8991 63.189 -109.024 111.409
10 715.728 559.959 98.8349 63.9323 -101.358 -168.654
