#Rx
# X(m), Y(m), Z(m), Distance(m), Power (dBm) Phase (deg)
1 778.969 530.013 186.814 151.017 -129.519 -45.9214
2 752.941 553.487 187.213 145.002 -137.55 -108.043
3 740.604 564.614 187.262 144.913 -136.138 -124.691
4 664.639 633.127 188.639 182.529 -152.568 18.8087
5 734.892 541.43 186.433 145.527 -138.967 8.21552
6 766.854 517.342 186.346 151.457 -139.342 -47.3042
7 772.73 446.016 186.605 185.651 -122.066 70.0129
8 759.385 667.578 187.46 180.994 -122.621 54.1167
9 796.826 500.091 186.281 163.825 -135.739 -103.728
10 715.39 559.435 187.073 147.756 -138.575 -103.605
