#Rx
# X(m), Y(m), Z(m), Distance(m), Power (dBm) Phase (deg)
1 686.832 542.147 93.9822 80.4215 -133.92 11.5854
2 699.179 396.626 93.0381 177.299 -146.076 144.001
3 743.963 561.584 92.9806 50.523 -100.962 58.2294
4 668.716 629.45 94.3084 116.094 -155.213 136.45
5 751.874 699.175 92.24 147.905 -108.377 -62.5015
6 761.851 578.073 93.3936 56.2641 -101.466 -116.234
7 820.542 394 89.0706 187.827 -130.109 -62.378
8 794.608 510.009 91.9643 85.4766 -108.809 72.0861
9 780.822 571.681 93.0219 62.4427 -103.391 -58.6054
10 733.25 784.488 86.3837 229.088 -120.519 -48.0769
