#Rx
# X(m), Y(m), Z(m), Distance(m), Power (dBm) Phase (deg)
1 693.833 459.637 93.5416 124.085 -138.752 -25.3475
2 696.325 430.262 93.9692 148.143 -250 0
3 727.321 576.594 92.4234 55.8057 -106.057 -170.508
4 749.979 722.185 90.1357 169.076 -115.506 -137.199
5 757.012 636.815 92.7317 92.4267 -110.947 -29.6955
6 768.417 498.377 91.1851 81.6569 -103.856 23.5356
7 771.672 458.857 91.2302 115.157 -108.732 25.891
8 773.412 437.737 91.5917 134.564 -113.633 -43.1111
9 804.332 466.513 90.5788 120.216 -109.79 157.538
10 722.762 570.869 92.1751 55.8877 -101.245 31.4963
