#Rx
# X(m), Y(m), Z(m), Distance(m), Power (dBm) Phase (deg)
1 686.946 540.798 98.4811 83.5902 -117.685 -30.7996
2 699.187 396.539 97.5887 178.727 -156.604 162.056
3 742.83 562.606 97.5485 55.1777 -100.635 97.6321
4 668.143 629.967 98.8533 118.871 -132.946 123.352
5 752.014 697.482 96.8395 147.945 -110.805 -50.9008
6 761.982 576.478 97.9251 59.969 -103.675 25.9662
7 820.263 395.247 93.6807 187.818 -138.031 123.358
8 794.313 511.33 96.5353 87.2935 -119.277 75.169
9 780.559 572.855 97.5887 66.2705 -101.191 138.633
10 732.964 785.765 90.8163 231.24 -116.233 -16.4789
