#Rx
# X(m), Y(m), Z(m), Distance(m), Power (dBm) Phase (deg)
1 689.933 505.597 138.003 123.367 -115.632 -97.0358
2 695.287 442.494 139.133 160.352 -121.517 78.5093
3 749.783 724.556 135.261 188.927 -111.912 73.1728
4 777.849 584.979 137.576 103.312 -120.351 -164.035
5 810.924 437.023 135.304 167.173 -113.769 169.369
6 791.214 677.051 135.596 156.23 -114.248 122.045
7 783.141 664.529 136.531 145.407 -115.976 18.5055
8 769.368 643.165 137.674 128.515 -116.895 -46.7921
9 717.432 562.602 136.894 98.6343 -124.934 12.6829
10 715.231 559.188 137.076 99.4365 -128.268 165.272
