#Rx
# X(m), Y(m), Z(m), Distance(m), Power (dBm) Phase (deg)
1 680.298 619.142 88.6495 99.7097 -139.259 -48.1715
2 694.956 446.396 89.0314 132.945 -135.323 -101.994
3 804.863 539.757 85.9228 75.8825 -113.41 -135.125
4 764.05 551.386 87.159 48.9113 -109.494 -118.019
5 748.682 737.931 84.1537 182.755 -109.822 -114.048
6 755.588 654.098 87.8872 104.901 -104.918 148.666
7 827.236 364.053 81.4618 215.663 -123.808 -110.211
8 790.199 529.733 86.7903 69.4927 -111.429 -47.8022
9 789.169 673.878 85.8784 129.273 -124.152 -86.8185
10 747.651 609.476 88.1588 67.3291 -106.23 -160.425
