#Rx
# X(m), Y(m), Z(m), Distance(m), Power (dBm) Phase (deg)
1 677.78 648.828 92.602 122.688 -143.202 -155.876
2 691.25 490.076 92.3789 101.845 -117.779 -138.236
3 670.461 542.971 93.7851 92.865 -124.068 -41.3791
4 772.943 443.432 90.79 129.01 -109.03 -58.2957
5 756.514 642.862 91.988 97.0743 -108.438 147.138
6 758.611 617.4 92.365 77.0579 -108.455 -59.941
7 767.797 505.901 90.6311 75.6048 -106.491 -79.0481
8 781.628 662.182 90.7026 118.455 -126.529 143.558
9 770.668 645.181 91.8478 101.475 -108.711 163.979
10 717.657 562.95 91.0229 56.2516 -108.202 122.266
