#Rx
# X(m), Y(m), Z(m), Distance(m), Power (dBm) Phase (deg)
1 688.904 517.727 135.753 117.213 -120.802 153.831
2 789.644 520.385 134.502 109.244 -115.694 8.98717
3 670.321 628.003 136.395 138.432 -124.144 22.7975
4 741.745 541.266 134.364 93.8277 -130.936 -120.437
5 762.9 565.335 135.313 94.4663 -126.027 -130.03
6 765.369 535.369 134.5 97.1674 -132.033 99.9698
7 825.131 373.47 130.054 220.719 -117.105 134.073
8 786.656 545.584 134.771 101.834 -121.899 -160.034
9 773.429 604.754 135.592 106.85 -121.06 96.2333
10 786.7 670.049 133.946 148.746 -114.232 -116.246
