#Rx
# X(m), Y(m), Z(m), Distance(m), Power (dBm) Phase (deg)
1 679.728 625.867 137.21 133.026 -124.329 6.96272
2 685.784 554.492 137.597 112.673 -122.704 -11.3365
3 825.654 487.907 132.957 140.429 -119.209 156.917
4 750.505 541.057 135.27 94.7683 -121.811 151.206
5 668.304 543.022 138.396 124.565 -127.851 -117.378
6 757.032 636.563 136.549 121.755 -115.501 94.8185
7 759.646 604.838 136.575 105.083 -127.582 46.6988
8 768.814 493.555 135.005 116.139 -115.005 -147.815
9 724.991 821.432 98.2966 268.139 -250 0
10 800.034 690.733 132.949 167.891 -114.15 -133.501
