#Rx
# X(m), Y(m), Z(m), Distance(m), Power (dBm) Phase (deg)
1 673.63 697.727 85.9163 161.521 -138.299 -96.5658
2 687.799 530.749 87.9165 79.3949 -123.18 -102.195
3 696.677 426.116 88.7187 149.972 -250 0
4 699.107 397.481 87.4071 175.003 -140.961 -173.306
5 659.2 543.24 90.4114 100.541 -125.246 161.822
6 752.633 689.971 87.0162 137.535 -115.533 30.2178
7 816.917 410.213 84.1759 170.881 -137.31 4.7832
8 802.983 472.547 85.7543 112.978 -106.427 156.42
9 775.893 593.73 87.5979 63.7416 -108.68 -107.004
10 756.534 680.328 87.0259 128.725 -106.654 -85.2975
