#Rx
# X(m), Y(m), Z(m), Distance(m), Power (dBm) Phase (deg)
1 673.303 701.589 185.69 214.077 -140.574 117.916
2 796.01 514.643 186.377 158.909 -124.382 -36.5046
3 760.767 546.429 186.953 145.815 -131.678 152.678
4 727.124 576.772 187.609 147.266 -131.479 -90.8119
5 807.709 451.404 185.567 189.901 -122.038 59.2599
6 804.222 467.006 185.669 180.356 -119.959 57.4188
7 785.609 550.265 187.095 150.215 -135.943 131.372
8 758.937 669.581 187.374 182.09 -124.16 -13.8192
9 756.922 623.858 188.055 159.3 -133.989 -171.129
10 715.665 559.861 186.928 147.556 -136.488 -129.151
