#Rx
# X(m), Y(m), Z(m), Distance(m), Power (dBm) Phase (deg)
1 686.946 540.798 136.501 112.64 -116.882 -81.5004
2 699.187 396.539 135.609 193.845 -135.03 42.9849
3 742.83 562.606 135.568 93.1352 -127.065 80.865
4 668.143 629.967 136.873 140.922 -129.069 -62.0383
5 752.014 697.482 134.859 165.721 -120.913 0.347181
6 761.982 576.478 135.945 96.2004 -148.762 13.5601
7 820.263 395.247 131.701 201.522 -113.741 -80.6502
8 794.313 511.33 134.555 114.772 -119.248 21.7758
9 780.559 572.855 135.609 100.122 -126.266 2.31125
10 732.964 785.765 128.836 242.053 -114.968 46.0101
