#Rx
# X(m), Y(m), Z(m), Distance(m), Power (dBm) Phase (deg)
1 686.717 543.497 135.547 111.535 -120.674 53.7132
2 699.17 396.742 134.551 193.172 -147.203 -83.8901
3 745.094 560.564 134.476 91.9587 -128.462 -146.864
4 669.309 628.915 135.827 139.055 -141.913 -54.5847
5 751.735 700.866 133.704 167.899 -108.977 53.0613
6 761.72 579.669 134.925 95.771 -132.553 -110.998
7 820.821 392.753 130.524 203.258 -115.97 79.6113
8 794.903 508.691 133.457 115.295 -117.761 -159.099
9 781.084 570.51 134.519 99.0171 -120.089 69.611
10 733.534 783.215 128.014 239.351 -117.973 79.7761
