#Rx
# X(m), Y(m), Z(m), Distance(m), Power (dBm) Phase (deg)
1 697.236 419.529 101.006 159.782 -250 0
2 698.649 402.881 100.053 173.891 -250 0
3 822.447 490.8 97.1983 116.714 -116.441 20.4761
4 660.346 636.999 101.246 129.282 -127.227 109.267
5 744.262 541.206 99.2077 59.7438 -99.7828 13.705
6 660.088 543.219 102.891 106.333 -117.983 -105.585
7 756.997 636.989 100.564 97.0412 -105.976 14.8215
8 773.298 439.121 99.3976 136.351 -113.403 21.9232
9 808.139 449.481 98.1892 138.471 -114.635 -97.9984
10 722.617 832.053 62.316 273.772 -250 0
