#Rx
# X(m), Y(m), Z(m), Distance(m), Power (dBm) Phase (deg)
1 689.826 506.859 87.9831 89.6998 -116.984 110.841
2 695.152 444.09 89.1075 134.873 -134.019 140.68
3 749.693 725.653 85.1705 171.095 -113.99 160.438
4 778.115 583.79 87.56 60.2131 -107.866 10.9185
5 811.214 435.724 85.2842 146.717 -117.934 -44.7082
6 791.95 678.193 85.4776 133.889 -134.017 103.752
7 783.872 665.662 86.4642 120.539 -127.544 -89.2442
8 769.999 644.143 87.6366 98.4438 -105.452 106.093
9 717.676 562.98 86.8916 52.7224 -121.475 31.9638
10 715.247 559.213 87.0761 54.1412 -115.103 47.5177
