#Rx
# X(m), Y(m), Z(m), Distance(m), Power (dBm) Phase (deg)
1 689.504 510.652 87.9236 87.6821 -117.653 29.4653
2 694.732 449.043 89.0299 130.778 -141.253 135.939
3 749.423 728.937 84.8986 174.204 -105.449 -54.1757
4 778.913 580.222 87.5104 59.2958 -109.215 -115.995
5 812.086 431.825 85.2095 150.394 -126.08 81.47
6 794.165 681.628 85.1212 137.579 -122.866 -150.907
7 786.052 669.043 86.2643 124.128 -130.443 -76.299
8 771.89 647.076 87.4632 101.351 -108.367 64.2682
9 718.489 564.242 86.9437 52.4211 -117.182 -106.064
10 715.389 559.433 87.0734 54.0557 -111.49 132.383
