#Rx
# X(m), Y(m), Z(m), Distance(m), Power (dBm) Phase (deg)
1 775.916 532.766 136.802 102.592 -129.017 -113.408
2 750.038 556.106 137.199 94.8412 -121.57 74.1374
3 737.757 567.182 137.247 95.352 -128.546 -156.782
4 663.466 634.185 138.568 146.764 -124.044 96.1163
5 730.428 541.537 136.316 96.8523 -122.268 -20.2838
6 767.24 512.655 136.292 107.169 -116.589 152.673
7 772.889 444.086 136.585 151.679 -113.026 138.076
8 758.497 671.549 137.309 146.914 -110.427 154.377
9 795.934 504.079 136.284 120.048 -115.841 9.45376
10 715.247 559.213 137.017 99.3751 -124.77 -72.0397
