#Rx
# X(m), Y(m), Z(m), Distance(m), Power (dBm) Phase (deg)
1 686.952 613.003 108.69 103.314 -133.217 17.3453
2 662.192 543.168 110.054 108.938 -127.335 -136.061
3 755.134 659.606 107.656 119.361 -117.747 176.474
4 773.113 441.365 106.522 137.496 -114.609 -54.8294
5 773.403 437.851 106.594 140.628 -114.184 -97.3111
6 804.65 465.091 105.461 128.097 -115.406 -94.5794
7 782.99 561.98 106.98 74.3425 -103.057 164.102
8 779.724 576.594 107.182 74.7891 -107.254 -11.1912
9 745.169 731.167 104.565 182.066 -114.722 -83.8207
10 734.529 589.122 107.793 72.386 -101.862 88.1617
