#Rx
# X(m), Y(m), Z(m), Distance(m), Power (dBm) Phase (deg)
1 679.676 626.475 112.831 117.307 -145.801 150.548
2 690.93 493.844 112.447 110.899 -117.104 -102.74
3 749.55 727.385 109.007 180.14 -115.811 104.783
4 750.941 710.499 110.543 165.23 -109.53 172.383
5 765.909 528.812 110.575 77.4601 -108.719 145.308
6 769.916 480.179 110.648 107.631 -111.172 -7.87269
7 807.861 450.725 109.637 142.38 -111.9 20.3394
8 768.438 627.077 112.081 99.2018 -107.903 161.276
9 729.793 799.949 73.8841 242.532 -250 0
10 715.569 559.712 111.05 74.9799 -103.689 -20.7464
