#Rx
# X(m), Y(m), Z(m), Distance(m), Power (dBm) Phase (deg)
1 673.509 699.153 95.0052 165.447 -136.952 -21.6928
2 687.68 532.15 97.1425 84.6172 -116.996 145.945
3 696.57 427.372 97.9797 152.016 -250 0
4 699.085 397.735 96.5792 177.35 -150.865 94.1309
5 659.259 543.239 99.5838 105.17 -124.398 -42.4617
6 752.524 691.29 96.1504 141.97 -110.068 109.052
7 817.205 408.925 93.2866 174.559 -132.68 127.409
8 803.269 471.267 94.9069 117.887 -107.387 -132.966
9 776.246 592.151 96.7483 69.92 -105.153 -14.9135
10 756.875 678.804 96.2334 130.834 -116.082 -93.0014
