#Rx
# X(m), Y(m), Z(m), Distance(m), Power (dBm) Phase (deg)
1 679.281 631.13 141.132 138.688 -122.323 145.463
2 690.443 499.581 140.709 127.974 -123.5 67.5624
3 749.143 732.327 136.95 196.527 -110.712 -120.327
4 750.531 715.479 138.485 182.764 -114.429 -63.7345
5 765.561 533.035 139.059 102.121 -129.569 -140.31
6 769.497 485.264 138.994 124.274 -115.42 -33.2237
7 808.974 445.747 137.911 161.611 -110.803 -27.0636
8 769.552 622.094 140.471 118.339 -115.319 86.9187
9 730.939 794.827 132.231 251.829 -114.766 -7.56299
10 715.731 559.963 139.399 101.494 -144.745 -161.045
