#Rx
# X(m), Y(m), Z(m), Distance(m), Power (dBm) Phase (deg)
1 686.209 549.484 96.3958 81.1651 -122.861 133.904
2 744.007 561.545 94.9732 52.5102 -98.9966 75.1141
3 693.575 607.03 96.7993 88.9158 -128.295 36.1819
4 663.581 634.081 96.2517 123.157 -136.592 -101.473
5 848.834 538.706 90.5894 115.493 -118.247 70.4341
6 814.484 421.096 92.4596 162.721 -115.033 -99.4604
7 774.859 598.357 95.5654 71.5367 -104.681 27.9773
8 771.416 613.759 95.6391 79.732 -106.971 123.973
9 754.179 690.862 94.6463 141.098 -114.077 -58.2367
10 728.883 804.022 57.5273 245.081 -250 0
