#Rx
# X(m), Y(m), Z(m), Distance(m), Power (dBm) Phase (deg)
1 697.45 417.007 84.5946 156.761 -250 0
2 698.745 401.748 83.8207 170.242 -150.93 12.5046
3 820.429 492.62 81.1047 107.556 -117.146 35.8091
4 660.28 637.059 85.0054 122.844 -125.926 -37.1188
5 741.526 541.272 82.9385 44.7677 -95.4878 100.895
6 659.882 543.224 86.6721 98.2183 -119.957 147.968
7 757.193 634.616 84.3536 86.2705 -106.637 133.146
8 773.342 438.585 83.1751 130.927 -113.772 12.7145
9 807.548 452.126 81.9968 130.319 -111.578 -46.6552
10 722.56 832.309 46.0826 273.339 -250 0
