#Rx
# X(m), Y(m), Z(m), Distance(m), Power (dBm) Phase (deg)
1 680.405 617.891 88.663 98.9088 -138.06 76.3607
2 695.06 445.178 89.0505 133.954 -137.772 -107.225
3 803.496 539.79 86.0178 74.8734 -112.833 172.176
4 764.14 550.283 87.1246 49.1197 -110.92 -88.8594
5 748.786 736.659 84.2591 181.543 -109.474 135.498
6 755.706 652.658 87.9011 103.629 -114.198 -172.46
7 826.958 365.296 81.5558 214.447 -123.119 -140.286
8 789.913 531.015 86.824 68.7821 -106.027 -93.0768
9 788.372 672.642 85.9515 127.944 -127.955 169.802
10 746.886 608.29 88.1566 66.446 -107.638 -26.6779
