#Rx
# X(m), Y(m), Z(m), Distance(m), Power (dBm) Phase (deg)
1 684.645 567.917 89.437 77.6401 -132.462 97.4738
2 688.033 527.983 87.8108 80.2256 -107.832 142.896
3 691.977 481.507 88.3807 105.748 -120.34 148.218
4 743.924 561.62 87.3512 44.9049 -121.068 -7.55263
5 723.128 541.711 86.3793 52.7344 -107.791 161.138
6 674.672 542.87 89.2176 86.9562 -116.839 -124.474
7 763.125 562.604 87.4392 48.1401 -119.381 -46.6558
8 772.735 445.959 86.7459 125.203 -110.559 26.6038
9 773.212 440.163 86.7242 130.595 -112.83 147.865
10 749.338 712.522 86.1778 158.681 -123.403 171.883
