#Rx
# X(m), Y(m), Z(m), Distance(m), Power (dBm) Phase (deg)
1 688.265 525.253 138.276 117.087 -121.045 37.243
2 699.029 398.402 138.016 193.492 -136.642 33.4457
3 782.161 527.133 137.195 106.539 -123.647 -174.628
4 749.854 723.695 135.763 188.426 -110.975 -174.061
5 758.785 615.285 138.677 111.649 -119.717 -152.853
6 772.215 452.27 136.947 145.632 -119.394 -28.7189
7 816.414 412.465 134.754 187.699 -113.263 -16.4492
8 751.863 701.224 137.014 170.021 -115.382 69.2774
9 722.528 832.452 100.134 279.464 -250 0
