#Rx
# X(m), Y(m), Z(m), Distance(m), Power (dBm) Phase (deg)
1 673.418 700.234 85.7694 163.719 -142.054 -88.0453
2 795.096 515.468 86.4405 79.5124 -117.086 30.0451
3 759.815 547.288 86.9678 48.2467 -113.492 -36.2494
4 726.016 577.771 87.6255 52.434 -114.176 -153.31
5 807.416 452.714 85.5872 130.907 -109.117 -32.8842
6 803.929 468.315 85.6888 116.727 -108.681 -37.6333
7 785.329 551.518 87.1121 60.0573 -116.779 2.344
8 758.668 670.784 87.3459 120.178 -107.314 8.55533
9 756.151 622.662 88.0783 78.133 -106.982 -144.561
10 715.617 559.786 86.929 53.8053 -108.613 96.4301
