#Rx
# X(m), Y(m), Z(m), Distance(m), Power (dBm) Phase (deg)
1 677.78 648.828 88.4694 121.06 -127.302 172.088
2 691.25 490.076 88.2463 99.8875 -119.773 46.7583
3 670.461 542.971 89.6526 90.6493 -122.947 -127.419
4 772.943 443.432 86.6575 127.522 -109.102 -87.544
5 756.514 642.862 87.8555 95.0351 -110.549 -97.7049
6 758.611 617.4 88.2324 74.4516 -106.57 162.814
7 767.797 505.901 86.4986 73.0448 -107.582 39.4447
8 781.628 662.182 86.57 116.836 -128.54 8.30159
9 770.668 645.181 87.7153 99.5318 -106.562 120.943
10 717.657 562.95 86.8903 52.7301 -117.194 -74.5297
