#Rx
# X(m), Y(m), Z(m), Distance(m), Power (dBm) Phase (deg)
1 673.303 701.589 136.207 184.686 -128.253 -170.948
2 796.01 514.643 136.894 116.034 -115.926 -130.172
3 760.767 546.429 137.47 97.0414 -120.299 31.2652
4 727.124 576.772 138.125 98.8801 -128.908 18.24
5 807.709 451.404 136.084 156.06 -110.308 127.921
6 804.222 467.006 136.185 144.258 -109.839 81.6398
7 785.609 550.265 137.611 103.467 -118.628 -92.6469
8 758.937 669.581 137.89 145.843 -112.685 -71.2437
9 756.922 623.858 138.571 115.855 -118.644 173.957
10 715.665 559.861 137.445 99.6508 -141.557 149.981
