#Rx
# X(m), Y(m), Z(m), Distance(m), Power (dBm) Phase (deg)
1 779.349 529.67 138.806 106.313 -124.267 -68.9545
2 797.238 539.939 138.491 110.623 -121.803 -52.9362
3 762.378 571.674 139.585 99.1234 -127.593 138.859
4 764.236 549.126 139.126 98.9083 -129.01 51.3965
5 769.238 488.406 138.416 121.906 -114.215 7.04498
6 773.214 440.137 138.762 156.108 -114.02 -114.464
7 810.939 436.959 137.241 168.308 -114.537 53.8539
8 807.724 451.337 137.464 156.943 -112.822 113.754
9 724.282 573.228 139.452 100.209 -135.491 49.7281
10 717.417 562.579 138.932 100.59 -129.151 -84.8272
