#Rx
# X(m), Y(m), Z(m), Distance(m), Power (dBm) Phase (deg)
1 678.023 645.961 135.947 144.008 -128.43 13.3291
2 691.462 487.571 135.732 130.031 -118.43 -54.6397
3 668.953 543.007 137.205 123.246 -117.467 76.0766
4 773.032 442.354 134.126 151.533 -114.993 172.017
5 756.687 640.754 135.323 123.479 -113.207 34.9171
6 758.82 614.86 135.649 108.841 -120.452 -102.31
7 768.034 503.022 133.949 109.957 -120.316 72.7089
8 780.002 659.659 134.166 139.593 -115.622 -29.4762
9 769.18 642.873 135.267 126.517 -119.196 -33.9301
10 717.191 562.228 134.346 96.2613 -121.728 43.3534
