#Rx
# X(m), Y(m), Z(m), Distance(m), Power (dBm) Phase (deg)
1 673.509 699.153 83.2265 162.096 -138.763 29.9781
2 687.68 532.15 85.3638 77.538 -118.091 131.041
3 696.57 427.372 86.2011 148.125 -250 0
4 699.085 397.735 84.8005 174.122 -149.549 115.105
5 659.259 543.239 87.8052 99.2741 -139.567 -156.757
6 752.524 691.29 84.3717 137.952 -117.959 126.79
7 817.205 408.925 81.508 171.505 -131.04 -72.9132
8 803.269 471.267 83.1282 113.146 -113.059 -131.086
9 776.246 592.151 84.9697 61.2385 -108.6 -82.2846
10 756.875 678.804 84.4547 126.455 -122.916 142.949
