#Rx
# X(m), Y(m), Z(m), Distance(m), Power (dBm) Phase (deg)
1 681.635 603.385 138.975 123.806 -126.609 5.45646
2 684.201 573.154 139.537 115.775 -131.632 29.4911
3 686.071 551.114 138.835 113.782 -126.718 -24.0529
4 826.585 487.068 134.12 142.137 -115.443 -20.0654
5 800.742 510.376 136.05 119.19 -116.959 -112.594
6 789.744 520.294 136.763 111.226 -118.373 69.9455
7 738.401 566.601 137.396 95.4046 -125.693 -7.63984
8 663.865 633.825 138.631 146.4 -123.296 37.3264
9 797.077 498.966 136.263 122.968 -114.249 119.464
10 722.423 832.918 99.804 279.859 -250 0
