#Rx
# X(m), Y(m), Z(m), Distance(m), Power (dBm) Phase (deg)
1 686.946 540.798 88.3006 77.1467 -106.801 -39.071
2 699.187 396.539 87.4082 175.857 -144.324 -21.1933
3 742.83 562.606 87.3679 45.0317 -116.315 159.16
4 668.143 629.967 88.6728 114.398 -131.116 -77.2226
5 752.014 697.482 86.659 144.518 -121.899 42.0761
6 761.982 576.478 87.7446 50.7138 -115.835 -134.518
7 820.263 395.247 83.5002 185.304 -128.633 73.141
8 794.313 511.33 86.3548 81.3884 -117.106 -67.9018
9 780.559 572.855 87.4082 58.0882 -102.024 -173.308
10 732.964 785.765 80.6357 229.33 -116.185 113.551
