#Rx
# X(m), Y(m), Z(m), Distance(m), Power (dBm) Phase (deg)
1 673.418 700.234 97.8988 167.332 -142.67 -87.5694
2 795.096 515.468 98.5699 86.8027 -116.4 -6.86915
3 759.815 547.288 99.0971 59.6073 -99.4094 177.184
4 726.016 577.771 99.7548 63.1708 -103.576 -14.416
5 807.416 452.714 97.7166 135.383 -108.455 -27.0418
6 803.929 468.315 97.8181 121.735 -111.489 112.981
7 785.329 551.518 99.2415 69.5389 -107 53.5024
8 758.668 670.784 99.4752 125.208 -113.352 -62.2155
9 756.151 622.662 100.208 85.7729 -106.219 -19.8043
10 715.617 559.786 99.0584 64.1822 -106.292 -137.113
