#Rx
# X(m), Y(m), Z(m), Distance(m), Power (dBm) Phase (deg)
1 677.029 657.669 86.5907 127.429 -146 -36.4564
2 682.525 592.907 87.5571 84.4988 -131.89 -10.0265
3 671.47 542.947 87.8985 88.9069 -119.837 135.836
4 751.444 704.396 84.8156 150.561 -110.981 51.0602
5 754.203 670.91 85.7839 119.331 -105.247 -92.5153
6 761.277 585.038 86.2032 52.6137 -108.483 -157.621
7 762.816 566.359 85.8405 46.8996 -98.6593 158.308
8 723.347 828.788 48.1206 269.799 -250 0
9 720.098 566.737 85.5432 50.6655 -108.545 146.242
