#Rx
# X(m), Y(m), Z(m), Distance(m), Power (dBm) Phase (deg)
1 673.187 702.948 93.3713 168.289 -140.78 112.529
2 796.926 513.817 94.0747 85.9295 -113.209 -172.832
3 761.716 545.573 94.6996 56.3691 -104.309 -127.43
4 728.233 575.771 95.3524 57.9247 -101.774 106.249
5 808.002 450.093 93.3076 136.025 -111.993 98.67
6 804.515 465.694 93.4091 122.094 -107.285 163.638
7 785.89 549.008 94.8382 66.6998 -103.641 163.848
8 759.204 668.384 95.1621 121.212 -122.688 -28.1265
9 757.692 625.053 95.792 84.8889 -109.232 -2.64801
10 715.728 559.959 94.6878 60.3115 -106.396 -173.968
