#Rx
# X(m), Y(m), Z(m), Distance(m), Power (dBm) Phase (deg)
1 676.705 661.488 97.3102 134.548 -131.701 -16.0011
2 682.247 596.181 98.4002 92.1723 -126.267 115.562
3 674.4 542.877 98.6069 92.5483 -124.841 -176.203
4 751.101 708.562 95.6087 157.844 -110.01 58.6302
5 753.86 675.072 96.5772 127.378 -110.498 164.124
6 760.912 589.47 97.1696 63.8517 -105.743 -102.067
7 762.459 570.698 96.8059 57.7226 -107.105 -118.948
8 723.736 827.048 59.0342 268.483 -250 0
9 721.294 568.592 96.5334 60.0106 -105.773 -96.5733
