#Rx
# X(m), Y(m), Z(m), Distance(m), Power (dBm) Phase (deg)
1 680.938 611.61 137.785 126.378 -127.658 125.823
2 697.715 413.88 136.843 180.495 -129.482 -72.5789
3 660.873 636.524 137.45 148.706 -129.076 46.7937
4 773.135 540.516 136.061 99.3238 -127.69 110.853
5 726.123 541.64 135.406 96.7437 -122.362 -68.1744
6 810.388 439.423 134.329 164.66 -118.987 -101.674
7 781.247 569.78 136.353 100.707 -120.068 45.3547
8 744.941 732.189 133.792 194.885 -110.812 115.686
9 741.546 747.376 132.483 207.9 -110.17 -69.4038
10 725.736 818.097 98.7516 264.927 -250 0
