#Rx
# X(m), Y(m), Z(m), Distance(m), Power (dBm) Phase (deg)
1 684.765 566.502 140.034 115.327 -122.202 179.206
2 688.142 526.709 138.413 116.836 -124.716 -160.033
3 692.07 480.413 139.049 136.234 -122.313 120.545
4 742.918 562.527 138.018 95.5772 -124.36 42.7944
5 721.782 541.744 137.013 99.2371 -123.822 30.7366
6 673.784 542.891 139.931 122.458 -122.163 -6.91066
7 763.24 561.214 138.074 97.1006 -135.448 102.849
8 772.791 445.274 137.411 151.272 -113.274 -87.2105
9 773.242 439.797 137.383 155.528 -116.376 -83.8966
10 749.02 713.943 136.72 180.501 -115.545 118.815
