#Rx
# X(m), Y(m), Z(m), Distance(m), Power (dBm) Phase (deg)
1 688.265 525.253 91.8754 83.5242 -112.941 -140.954
2 699.029 398.402 91.615 175.301 -156.761 82.1203
3 782.161 527.133 90.7944 68.6873 -106.303 -134.904
4 749.854 723.695 89.3617 170.307 -113.756 -74.8873
5 758.785 615.285 92.2762 75.4666 -106.7 114.796
6 772.215 452.27 90.546 120.826 -108.761 55.8621
7 816.414 412.465 88.3525 169.779 -134.495 17.3796
8 751.863 701.224 90.6132 149.302 -109.232 62.6738
9 722.528 832.452 53.7329 273.691 -250 0
