#Rx
# X(m), Y(m), Z(m), Distance(m), Power (dBm) Phase (deg)
1 677.402 653.28 88.2814 124.502 -137.98 156.073
2 699.029 398.399 87.546 174.207 -140.725 120.087
3 743.823 541.217 86.6899 48.044 -109.586 150.693
4 727.126 541.616 86.4716 51.241 -115.058 165.698
5 767.98 503.68 86.3611 74.6782 -105.151 10.6704
6 770.739 470.186 86.5393 103.034 -108.283 87.9797
7 773.412 437.737 86.7738 132.882 -106.104 -159.624
8 758.983 669.373 87.2784 118.886 -105.335 -114.545
9 724.787 822.347 49.804 263.303 -250 0
10 800.404 691.307 84.2567 148.132 -250 0
