#Rx
# X(m), Y(m), Z(m), Distance(m), Power (dBm) Phase (deg)
1 680.938 611.61 96.9762 99.3067 -137.31 -70.1224
2 697.715 413.88 96.0343 162.929 -250 0
3 660.873 636.524 96.6409 126.615 -144.013 -20.7325
4 773.135 540.516 95.2521 62.4201 -103.056 116.098
5 726.123 541.64 94.5973 58.6844 -105.342 41.1685
6 810.388 439.423 93.5203 145.895 -123.789 126.185
7 781.247 569.78 95.5444 64.4143 -103.448 -10.4891
8 744.941 732.189 92.9832 179.434 -116.882 -4.10519
9 741.546 747.376 91.6745 193.766 -111.1 156.616
10 725.736 818.097 57.9429 259.35 -250 0
