#Rx
# X(m), Y(m), Z(m), Distance(m), Power (dBm) Phase (deg)
1 699.009 398.639 91.2101 174.974 -143.775 121.82
2 735.645 569.087 91.1424 50.533 -112.583 142.385
3 710.263 591.979 92.2853 69.1088 -120.837 1.59492
4 821.913 539.349 88.502 91.122 -138.981 -78.7926
5 750.181 719.736 89.325 166.503 -119.076 -133.208
6 815.509 416.512 88.1815 165.847 -136.314 -57.2253
7 752.066 700.316 90.4695 148.405 -111.968 -122.061
8 738.677 760.21 86.3124 205.074 -120.813 -169.724
9 787.689 671.584 89.9584 128.215 -124.142 -171.039
