#Rx
# X(m), Y(m), Z(m), Distance(m), Power (dBm) Phase (deg)
1 775.916 532.766 98.9952 69.4671 -105.055 146.934
2 750.038 556.106 99.3916 57.144 -107.285 -139.884
3 737.757 567.182 99.4397 57.9566 -98.3936 -43.7313
4 663.466 634.185 100.761 125.327 -130.69 52.7717
5 730.428 541.537 98.5088 60.973 -108.706 40.2631
6 767.24 512.655 98.4849 76.3175 -101.449 20.0861
7 772.889 444.086 98.7782 131.619 -113.3 135.55
8 758.497 671.549 99.5023 125.88 -115.888 174.856
9 795.934 504.079 98.4765 93.5484 -109.888 97.4772
10 715.247 559.213 99.2101 64.4959 -105.319 -78.8379
