#Rx
# X(m), Y(m), Z(m), Distance(m), Power (dBm) Phase (deg)
1 698.978 399.001 85.778 173.213 -158.191 30.2241
2 736.559 568.262 85.6967 44.9591 -105.066 48.7538
3 711.095 591.228 86.7718 64.4321 -134.591 -68.3077
4 823.371 539.315 82.9689 89.7215 -118.498 168.393
5 750.061 721.183 83.7734 166.427 -118.249 -72.9835
6 815.828 415.088 82.6817 165.796 -133.141 -60.1689
7 752.355 699.025 85.0676 145.527 -117.645 -52.7028
8 738.963 758.932 80.9791 202.737 -126.756 55.3561
9 788.355 672.616 84.4657 127.418 -135.652 -167.358
