#Rx
# X(m), Y(m), Z(m), Distance(m), Power (dBm) Phase (deg)
1 680.511 616.635 139.782 130.213 -130.006 131.509
2 695.163 443.958 140.163 159.948 -119.866 -98.221
3 802.132 539.822 137.206 111.905 -117.902 82.6517
4 764.231 549.181 138.183 97.9807 -127.358 68.0323
5 748.891 735.388 135.457 198.509 -111.486 -60.4393
6 755.825 651.222 139.008 133.143 -109.924 76.1142
7 826.68 366.543 132.743 228.198 -113.231 22.7174
8 789.627 532.294 137.938 108.512 -121.753 -177.245
9 787.576 671.408 137.118 151.948 -116.423 -171.811
10 746.12 607.102 139.248 107.583 -118.382 -157.695
