#Rx
# X(m), Y(m), Z(m), Distance(m), Power (dBm) Phase (deg)
1 677.137 656.396 138.248 152.307 -125.717 72.4115
2 682.617 591.814 139.224 119.919 -132.906 76.0028
3 845.644 469.878 132.94 161.945 -120.778 132.817
4 670.566 542.968 139.605 124.118 -129.661 -98.2182
5 751.559 703.005 136.499 171.21 -114.199 126.807
6 754.317 669.521 137.468 145.184 -111.266 -135.677
7 761.399 583.559 137.829 99.3744 -138.591 -157.144
8 762.935 564.912 137.467 96.5667 -130.586 104.196
9 723.232 829.3 99.764 276.256 -250 0
10 719.728 566.163 137.163 98.4115 -126.078 61.3333
