#Rx
# X(m), Y(m), Z(m), Distance(m), Power (dBm) Phase (deg)
1 680.617 615.383 139.931 129.732 -124.251 -84.1394
2 695.267 442.734 140.303 160.891 -118.815 132.032
3 800.766 539.855 137.422 111.404 -113.596 174.829
4 764.322 548.083 138.27 98.2099 -129.57 17.6655
5 748.996 734.114 135.684 197.493 -118.676 8.88571
6 755.943 649.784 139.143 132.27 -112.995 76.725
7 826.401 367.791 132.959 227.128 -113.342 99.6799
8 789.34 533.575 138.078 108.2 -124.5 -66.1514
9 786.78 670.174 137.312 150.951 -114.724 93.4582
10 745.354 605.913 139.367 107.178 -124.962 -115.775
