#Rx
# X(m), Y(m), Z(m), Distance(m), Power (dBm) Phase (deg)
1 698.209 408.056 86.8927 165.347 -250 0
2 727.173 541.615 85.7804 50.6324 -101.116 111.668
3 760.779 591.08 87.2269 56.4163 -105.353 105.707
4 763.101 562.898 86.7509 47.507 -98.698 -62.9661
5 800.696 482.776 85.2209 103.818 -113.097 88.2754
6 791.742 522.831 85.8411 73.1455 -120.418 -89.2343
7 785.037 552.827 86.4785 59.223 -111.614 -9.56788
8 724.389 824.127 49.1122 265.092 -250 0
9 722.718 831.602 49.0722 272.677 -250 0
10 715.279 559.262 86.3837 53.5539 -115.59 29.2425
