#Rx
# X(m), Y(m), Z(m), Distance(m), Power (dBm) Phase (deg)
1 688.158 526.513 105.175 91.6092 -115.427 -94.7179
2 698.996 398.791 104.866 179.121 -155.694 134.898
3 783.161 526.232 104.03 79.3993 -102.469 13.0755
4 749.733 725.167 102.491 175.756 -113.731 100.122
5 758.687 616.476 105.541 85.5675 -107.696 44.5277
6 772.141 453.172 103.779 125.888 -115.544 -71.0971
7 816.709 411.145 101.541 175.045 -121.544 174.206
8 752.181 699.803 103.897 152.807 -110.21 -171.087
9 722.54 832.395 66.9841 274.495 -250 0
