#Rx
# X(m), Y(m), Z(m), Distance(m), Power (dBm) Phase (deg)
1 775.916 532.766 136.861 102.646 -119.127 41.9587
2 750.038 556.106 137.258 94.8999 -127.447 -150.21
3 737.757 567.182 137.306 95.4105 -128.674 54.2464
4 663.466 634.185 138.627 146.803 -124.481 14.7377
5 730.428 541.537 136.375 96.9093 -158.123 93.7651
6 767.24 512.655 136.351 107.221 -125.263 14.8708
7 772.889 444.086 136.644 151.716 -114.449 -5.00747
8 758.497 671.549 137.368 146.952 -114.047 -35.6317
9 795.934 504.079 136.342 120.094 -115.061 -52.0646
10 715.247 559.213 137.076 99.431 -135.01 91.9042
