#Rx
# X(m), Y(m), Z(m), Distance(m), Power (dBm) Phase (deg)
1 698.209 408.056 137.584 185.492 -139.362 -0.603786
2 727.173 541.615 136.472 97.5645 -129.647 -155.706
3 760.779 591.08 137.919 101.413 -124.417 -81.3444
4 763.101 562.898 137.443 96.4909 -126.083 114.652
5 800.696 482.776 135.913 132.954 -118.897 23.6404
6 791.742 522.831 136.533 110.958 -120.957 -29.5329
7 785.037 552.827 137.17 102.632 -138.192 -137.845
8 724.389 824.127 99.804 271.13 -250 0
9 722.718 831.602 99.764 278.543 -250 0
10 715.279 559.262 137.075 99.4202 -140.059 -168.906
