#Rx
# X(m), Y(m), Z(m), Distance(m), Power (dBm) Phase (deg)
1 673.63 697.727 105.308 167.774 -128.746 159.112
2 687.799 530.749 107.309 91.8702 -130.819 122.163
3 696.677 426.116 108.111 157.033 -250 0
4 699.107 397.481 106.799 180.95 -154.164 148.158
5 659.2 543.24 109.804 111.094 -122.178 -25.77
6 752.633 689.971 106.408 144.974 -111.95 -153.024
7 816.917 410.213 103.568 176.612 -115.214 -165.629
8 802.983 472.547 105.146 121.724 -113.894 -174.159
9 775.893 593.73 106.99 78.6589 -106.958 123.411
10 756.534 680.328 106.418 136.646 -118.286 -33.5655
