#Rx
# X(m), Y(m), Z(m), Distance(m), Power (dBm) Phase (deg)
1 698.093 409.429 137.541 184.378 -141.068 102.592
2 699.169 396.744 137.408 194.547 -137.508 -108.076
3 662.224 635.305 138.615 148.064 -121.548 33.6924
4 679.073 542.765 138.909 118.602 -117.379 -124.118
5 668.827 543.01 139.627 125.194 -116.603 -108.346
6 758.197 622.423 138.053 114.766 -117.209 -139.127
7 817.208 408.914 134.014 190.442 -109.783 0.258423
8 795.225 507.252 136.292 118.313 -135.455 17.2682
9 729.736 581.688 137.664 98.9268 -126.757 139.172
