#Rx
# X(m), Y(m), Z(m), Distance(m), Power (dBm) Phase (deg)
1 687.175 538.1 86.2261 76.4845 -108.563 26.1376
2 699.194 396.45 85.4369 175.445 -150.237 -142.639
3 740.567 564.648 85.4312 43.4993 -100.425 117.036
4 667.057 630.946 86.6908 114.961 -137.17 48.3584
5 752.292 694.099 84.7854 140.742 -118.187 -18.8443
6 762.245 573.286 85.7351 48.0382 -103.66 -133.765
7 819.706 397.741 81.648 182.459 -143.048 2.0606
8 793.721 513.977 84.4243 78.429 -110.315 85.7893
9 780.035 575.202 85.4694 56.8667 -101.137 30.5094
10 732.395 788.312 78.4292 231.518 -116.691 123.403
