#Rx
# X(m), Y(m), Z(m), Distance(m), Power (dBm) Phase (deg)
1 688.286 525.003 87.8385 81.2965 -126.539 -148.631
2 749.1 732.858 84.5739 177.926 -114.468 -160.946
3 750.453 716.426 85.7947 162.362 -109.037 -83.8849
4 828.408 358.81 80.9656 220.786 -128.98 -148.807
5 823.454 380.974 82.6406 199.145 -132.881 -133.555
6 814.779 419.778 84.6733 161.77 -124.157 178.834
7 752.452 698.589 86.745 145.616 -107.083 21.8504
8 747.074 722.649 85.4985 168.234 -107.221 -7.82029
9 735.857 772.825 81.5373 216.609 -125.502 82.2072
10 765.997 637.935 87.9172 92.3811 -106.328 16.2511
