#Rx
# X(m), Y(m), Z(m), Distance(m), Power (dBm) Phase (deg)
1 680.298 619.142 87.8766 99.3546 -147.407 160.915
2 694.956 446.396 88.2585 132.676 -140.902 136.271
3 804.863 539.757 85.15 75.4431 -123.728 -169.099
4 764.05 551.386 86.3861 48.207 -104.035 -42.8252
5 748.682 737.931 83.3809 182.581 -134.41 -149.428
6 755.588 654.098 87.1143 104.569 -107.586 2.52236
7 827.236 364.053 80.689 215.525 -124.354 -160.523
8 790.199 529.733 86.0175 69.0029 -117.033 -135.567
9 789.169 673.878 85.1056 129.016 -129.537 -102.939
10 747.651 609.476 87.386 66.8077 -104.031 -113.006
