#Rx
# X(m), Y(m), Z(m), Distance(m), Power (dBm) Phase (deg)
1 685.005 563.673 89.2748 76.9386 -120.725 74.6477
2 688.357 524.167 87.7116 81.5394 -115.289 157.157
3 692.255 478.225 88.4322 108.089 -137.951 58.4189
4 740.902 564.345 87.3975 45.3712 -116.308 -158.647
5 719.09 541.808 86.3265 54.5324 -124.937 -54.6371
6 672.091 542.932 89.3984 89.1691 -119.786 -173.578
7 763.469 558.43 87.3788 48.1625 -111.417 -16.2151
8 772.898 443.984 86.7862 127.053 -110.841 -136.869
9 773.296 439.147 86.745 131.552 -111.677 -28.7976
10 748.384 716.787 85.8496 162.68 -111.893 7.13769
