#Rx
# X(m), Y(m), Z(m), Distance(m), Power (dBm) Phase (deg)
1 675.346 677.507 98.5615 148.122 -143.281 153.594
2 699.211 396.253 98.8287 179.367 -153.906 -81.6804
3 841.008 474.059 94.5809 138.284 -117.622 92.4358
4 671.589 626.859 99.8865 115.315 -135.161 168.242
5 831.146 539.129 95.3759 102.366 -126.594 -117.785
6 773.341 438.604 98.0763 136.274 -114.498 151.074
7 792.418 519.809 97.9462 82.714 -108.126 120.455
8 750.865 705.689 97.7615 155.885 -112.05 77.6937
9 741.202 748.916 94.6973 196.047 -111.593 -78.4218
10 717.432 562.601 98.2146 62.6451 -103.014 116.201
