#Rx
# X(m), Y(m), Z(m), Distance(m), Power (dBm) Phase (deg)
1 697.236 419.529 144.51 180.309 -142.936 144.918
2 698.649 402.881 143.557 192.708 -133.048 29.0227
3 822.447 490.8 140.703 142.38 -114.893 40.8859
4 660.346 636.999 144.75 153.999 -121.649 18.0466
5 744.262 541.206 142.712 101.951 -120.753 48.4623
6 660.088 543.219 146.395 135.837 -123.815 -165.541
7 756.997 636.989 144.068 127.905 -116.887 29.8628
8 773.298 439.121 142.902 159.477 -115.891 137.979
9 808.139 449.481 141.694 160.967 -124.664 -36.6592
10 722.617 832.053 105.82 280.296 -250 0
