#Rx
# X(m), Y(m), Z(m), Distance(m), Power (dBm) Phase (deg)
1 699.157 396.892 137.408 194.426 -132.515 84.7269
2 749.904 556.227 137.12 94.7517 -123.485 60.8674
3 760.558 540.816 136.769 97.2734 -124.944 173.182
4 759.163 610.703 138.153 109.037 -123.105 157.75
5 750.201 708.66 136.473 175.909 -110.649 164.988
6 811.273 435.462 135.32 168.468 -113.36 42.7638
7 780.738 572.058 137.397 101.75 -128.074 -119.461
8 719.733 566.171 137.023 98.2763 -133.379 -67.6343
9 717.073 562.045 137.001 98.8279 -126.43 105.952
10 715.617 559.787 136.929 99.1743 -122.402 15.6738
