#Rx
# X(m), Y(m), Z(m), Distance(m), Power (dBm) Phase (deg)
1 776.935 531.847 134.453 100.998 -129.015 -65.036
2 751.007 555.232 134.85 92.5849 -138.317 126.954
3 738.706 566.326 134.898 92.8781 -138.013 170.252
4 663.838 633.85 136.238 144.868 -119.261 -11.4149
5 731.916 541.501 134.001 94.3862 -126.435 53.9472
6 767.112 514.218 133.956 104.411 -124.521 -141.214
7 772.838 444.703 134.239 149.751 -119.134 116.713
8 758.793 670.226 135.006 144.452 -118.71 49.8823
9 796.231 502.75 133.929 118.978 -119.485 63.9737
10 715.279 559.262 134.683 97.1474 -133.016 165.319
