#Rx
# X(m), Y(m), Z(m), Distance(m), Power (dBm) Phase (deg)
1 679.728 625.867 138.577 134.003 -131.932 152.255
2 685.784 554.492 138.964 113.829 -135.906 -92.2117
3 825.654 487.907 134.324 141.313 -110.134 -121.088
4 750.505 541.057 136.637 96.1069 -125.902 67.0068
5 668.304 543.022 139.764 125.62 -116.491 -162.921
6 757.032 636.563 137.916 122.814 -118.077 39.1634
7 759.646 604.838 137.943 106.308 -123.436 -124.818
8 768.814 493.555 136.373 117.231 -117.474 -12.3969
9 724.991 821.432 99.664 268.427 -250 0
10 800.034 690.733 134.316 168.632 -117.689 144.954
