#Rx
# X(m), Y(m), Z(m), Distance(m), Power (dBm) Phase (deg)
1 682.369 594.741 112.471 100.74 -135.598 -140.675
2 687.671 532.253 111.284 94.3405 -109.416 -21.7365
3 725.639 578.111 110.941 73.6446 -104.063 41.1711
4 753.042 684.999 110.43 142.428 -113.196 161.514
5 755.164 659.242 111.147 121.005 -120.653 151.948
6 769.01 624.518 111.29 97.0609 -113.781 10.5352
7 751.317 703.669 109.798 158.728 -110.271 55.5881
8 724.548 823.415 73.0738 266.047 -250 0
9 782.16 663.007 109.831 128.251 -110.696 -118.73
