#Rx
# X(m), Y(m), Z(m), Distance(m), Power (dBm) Phase (deg)
1 677.295 654.533 134.743 148.866 -121.286 28.8637
2 698.996 398.784 134.021 191.237 -149.061 -159.015
3 745.402 541.179 133.186 92.5972 -126.434 -129.064
4 728.616 541.58 132.966 93.9221 -150.228 -104.496
5 767.888 504.796 132.835 108.087 -115.255 -101.148
6 770.627 471.541 133.013 128.918 -113.284 70.0552
7 773.402 437.855 133.247 154.599 -115.976 -92.0956
8 759.255 668.156 133.782 142.132 -118.022 -79.4196
9 724.956 821.588 96.2792 267.882 -250 0
10 801.061 692.325 130.626 168.237 -115.05 139.629
