#Rx
# X(m), Y(m), Z(m), Distance(m), Power (dBm) Phase (deg)
1 677.508 652.031 92.0047 124.937 -139.767 -155.611
2 699.059 398.039 91.2563 175.527 -157.392 31.3913
3 742.243 541.254 90.3791 51.5332 -99.8378 -57.729
4 725.638 541.651 90.1619 54.9608 -101.69 -101.08
5 768.072 502.565 90.0722 77.7611 -106.835 -3.05338
6 770.849 468.856 90.2506 105.842 -109.44 64.1199
7 773.419 437.649 90.4854 134.245 -112.456 -132.845
8 758.71 670.593 90.9601 121.402 -115.024 -50.5864
9 724.623 823.076 53.5138 264.172 -250 0
10 799.745 690.285 88.0726 148.113 -250 0
