#Rx
# X(m), Y(m), Z(m), Distance(m), Power (dBm) Phase (deg)
1 697.01 422.196 138.542 174.956 -139.84 4.29941
2 698.544 404.117 137.399 188.555 -134.563 176.401
3 824.462 488.983 134.407 140.151 -113.571 119.276
4 660.499 636.861 138.598 149.828 -123.545 -67.5045
5 747.001 541.141 136.591 95.9451 -120.587 96.425
6 660.409 543.211 140.216 130.964 -125.796 -162.17
7 756.802 639.363 137.889 124.538 -118.629 20.2298
8 773.245 439.762 136.732 155.161 -116.501 130.136
9 808.729 446.84 135.496 159.324 -114.129 -55.4471
10 722.699 831.685 99.664 278.605 -250 0
