#Rx
# X(m), Y(m), Z(m), Distance(m), Power (dBm) Phase (deg)
1 680.617 615.383 88.716 97.3442 -135.4 -87.6666
2 695.267 442.734 89.0888 135.991 -132.562 135.342
3 800.766 539.855 86.2076 72.8932 -113.717 105.963
4 764.322 548.083 87.0559 49.6068 -112.938 -157.948
5 748.996 734.114 84.4698 179.121 -111.246 122.212
6 755.943 649.784 87.9288 101.102 -111.457 -36.7356
7 826.401 367.791 81.7443 212.006 -125.043 165.503
8 789.34 533.575 86.8631 67.3994 -107.873 -168.307
9 786.78 670.174 86.0975 125.299 -127.233 -111.826
10 745.354 605.913 88.1522 64.7336 -99.7874 39.6011
