#Rx
# X(m), Y(m), Z(m), Distance(m), Power (dBm) Phase (deg)
1 686.209 549.484 90.4322 77.3355 -124.812 -27.1958
2 744.007 561.545 89.0096 46.5544 -100.783 -99.466
3 693.575 607.03 90.8358 85.4062 -140.843 3.44762
4 663.581 634.081 90.2881 120.675 -128.235 -53.4385
5 848.834 538.706 84.6258 113.141 -123.445 -28.462
6 814.484 421.096 86.4961 160.99 -125.398 89.2983
7 774.859 598.357 89.6018 67.2341 -108.02 -163.017
8 771.416 613.759 89.6755 75.8897 -105.372 -139.362
9 754.179 690.862 88.6828 139.005 -110.521 -86.8167
10 728.883 804.022 51.5637 244.788 -250 0
