#Rx
# X(m), Y(m), Z(m), Distance(m), Power (dBm) Phase (deg)
1 673.111 703.842 89.4919 167.956 -138.881 -87.8898
2 682.629 591.675 93.0211 87.001 -123.187 159.935
3 687.863 529.99 91.6815 81.8353 -117.325 -95.5957
4 723.466 580.071 91.4585 57.4913 -102.965 33.3401
5 753.21 682.959 90.9729 132.357 -110.129 -107.789
6 755.332 657.201 91.6512 109.31 -105.459 -40.7952
7 768.39 627.292 91.7528 86.3313 -106.677 71.1958
8 750.687 706.487 90.2168 154.127 -109.536 96.9238
9 724.204 824.952 53.5579 266.076 -250 0
10 780.441 660.34 90.4728 116.419 -125.741 -6.99502
