#Rx
# X(m), Y(m), Z(m), Distance(m), Power (dBm) Phase (deg)
1 698.361 406.268 187.397 216.544 -137.73 159.101
2 699.194 396.45 187.408 223.452 -137.527 -105.09
3 661.255 636.18 188.606 185.27 -134.516 165.741
4 675.198 542.857 189.181 163.753 -123.741 30.7561
5 666.245 543.072 189.808 168.345 -125.188 -93.4248
6 758.647 616.962 188.087 156.823 -126.841 168.76
7 816.174 413.538 184.235 215.541 -117.891 19.7086
8 793.886 513.241 186.384 158.667 -127.961 90.1328
9 802.499 694.557 183.771 203.098 -123.875 66.3793
10 727.268 577.859 187.506 147.274 -143.72 171.27
