#Rx
# X(m), Y(m), Z(m), Distance(m), Power (dBm) Phase (deg)
1 689.136 514.992 99.2144 92.0497 -124.415 154.752
2 787.322 522.479 97.8879 78.6162 -103.96 -74.0941
3 669.119 629.086 99.8011 118.171 -134.116 152.256
4 739.308 541.325 97.7498 58.6812 -102.017 -58.9665
5 763.135 562.493 98.6968 58.7813 -104.055 -58.5778
6 765.59 532.691 97.8346 64.7214 -101.711 -173.678
7 824.519 376.209 93.6794 206.304 -135.582 98.8834
8 785.986 548.579 98.2302 69.5168 -103.518 -176.293
9 772.825 607.453 99.0472 78.5258 -103.799 -41.586
10 785.254 667.807 97.4963 127.221 -132.513 74.3777
