#Rx
# X(m), Y(m), Z(m), Distance(m), Power (dBm) Phase (deg)
1 699.125 397.268 87.4074 175.195 -148.811 -18.9695
2 752.153 554.198 87.0851 45.3571 -116.722 132.4
3 763.356 540.75 86.8054 51.3098 -130.607 47.7547
4 758.983 612.892 88.1787 71.0668 -107.22 32.7195
5 750.731 706.287 86.5275 152.835 -118.033 -59.5848
6 811.854 432.865 85.2799 149.426 -120.21 161.832
7 781.318 569.461 87.3611 57.8558 -115.23 1.89828
8 720.459 567.298 87.0698 51.8647 -120.394 67.0429
9 717.602 562.866 86.9911 52.8395 -112.807 29.6154
10 715.728 559.959 86.9269 53.7404 -115.247 -95.3249
