#Rx
# X(m), Y(m), Z(m), Distance(m), Power (dBm) Phase (deg)
1 678.144 644.528 140.758 146.286 -125.741 -28.8191
2 691.569 486.319 140.548 134.166 -120.497 132.297
3 668.24 543.024 142.051 127.438 -122.342 114.503
4 773.073 441.856 138.932 154.873 -118.053 19.7058
5 756.774 639.696 140.129 126.468 -118.223 -129.553
6 758.925 613.591 140.43 112.359 -123.516 87.0564
7 768.153 501.581 138.746 114.727 -117.809 99.7841
8 779.189 658.398 139.036 141.769 -115.299 118.613
9 768.436 641.718 140.085 129.226 -119.168 139.701
10 716.98 561.9 139.146 100.904 -122.31 -103.986
