#Rx
# X(m), Y(m), Z(m), Distance(m), Power (dBm) Phase (deg)
1 677.614 650.777 87.3506 122.175 -131.475 -54.5409
2 699.088 397.705 86.589 174.591 -147.662 72.556
3 740.663 541.292 85.6908 47.3485 -98.2962 -105.683
4 724.148 541.687 85.4748 51.5527 -101.237 -1.72096
5 768.164 501.448 85.4058 75.8842 -102.619 -72.4569
6 770.956 467.554 85.5845 104.992 -110.169 88.1494
7 773.424 437.59 85.819 132.705 -110.044 -1.88469
8 758.438 671.81 86.2645 120.704 -106.495 -125.914
9 724.466 823.781 48.8462 264.734 -250 0
10 799.087 689.264 83.5109 145.628 -250 0
