#Rx
# X(m), Y(m), Z(m), Distance(m), Power (dBm) Phase (deg)
1 682.239 596.275 98.2706 92.1365 -131.831 -41.9277
2 687.575 533.387 97.16 84.3025 -110.93 24.0455
3 726.725 577.131 96.7573 60.0525 -104.812 79.4587
4 752.958 686.018 96.2331 137.163 -107.835 -171.292
5 755.08 660.266 96.9704 114.456 -106.265 -119.648
6 769.321 623.128 97.1335 86.6677 -106.622 -56.1782
7 751.632 702.258 95.663 151.963 -125.101 157.366
8 724.732 822.593 58.9067 263.962 -250 0
9 783.021 664.343 95.5849 122.775 -121.455 2.31696
