#Rx
# X(m), Y(m), Z(m), Distance(m), Power (dBm) Phase (deg)
1 680.511 616.635 90.6865 99.0756 -154.729 55.0114
2 695.163 443.958 91.0672 135.671 -137.853 -123.762
3 802.132 539.822 88.1102 75.0741 -121.059 1.49601
4 764.231 549.181 89.0877 51.1631 -107.893 1.69219
5 748.891 735.388 86.3619 180.807 -130.953 -11.8504
6 755.825 651.222 89.9125 103.265 -140.723 2.23338
7 826.68 366.543 83.6476 213.602 -126.812 38.7812
8 789.627 532.294 88.8429 69.4005 -116.439 50.1143
9 787.576 671.408 88.022 127.32 -126.299 106.766
10 746.12 607.102 90.152 66.9854 -104.68 91.5984
