#Rx
# X(m), Y(m), Z(m), Distance(m), Power (dBm) Phase (deg)
1 683.293 616.303 138.613 127.81 -126.488 -176.937
2 660.774 543.202 140.148 130.676 -126.125 -89.4247
3 755.634 653.535 137.709 133.798 -113.782 84.2935
4 773.244 439.783 136.549 155.032 -117.818 5.03305
5 773.427 437.561 136.594 156.821 -119.214 -24.4279
6 803.317 471.055 135.548 140.89 -120.151 133.01
7 781.884 566.928 137.043 101.339 -131.163 -155.84
8 778.611 581.573 137.246 102.475 -115.425 -62.9796
9 743.866 736.999 134.111 199.302 -110.754 51.7682
10 731.67 584.688 137.604 99.2733 -123.854 54.6524
