#Rx
# X(m), Y(m), Z(m), Distance(m), Power (dBm) Phase (deg)
1 686.209 549.484 188.633 158.219 -132.209 -164.463
2 744.007 561.545 187.21 144.708 -133.822 29.8652
3 693.575 607.03 189.036 162.561 -123.463 -33.1393
4 663.581 634.081 188.488 183.267 -140.828 166.53
5 848.834 538.706 182.826 175.252 -131.222 -12.8904
6 814.484 421.096 184.696 210.232 -120.385 -44.4053
7 774.859 598.357 187.802 153.003 -134.029 -174.711
8 771.416 613.759 187.876 157.045 -123.595 0.520173
9 754.179 690.862 186.883 195.017 -118.987 11.8415
10 728.883 804.022 149.764 267.096 -250 0
