#Rx
# X(m), Y(m), Z(m), Distance(m), Power (dBm) Phase (deg)
1 781.182 528.016 86.7405 64.9299 -106.407 -64.7263
2 800.445 539.863 86.2299 72.6638 -118.868 160.215
3 762.133 574.646 87.5827 50.0513 -121.577 -75.7282
4 764.006 551.913 87.1754 48.8201 -119.615 27.6519
5 768.999 491.312 86.3752 84.6758 -101.78 -98.8691
6 773.149 440.933 86.7085 129.871 -108.262 168.9
7 811.492 434.484 85.165 147.857 -126.383 123.931
8 808.277 448.863 85.3876 134.415 -116.627 -53.5945
9 725.455 575.046 87.4896 51.6763 -117.755 103.3
10 717.911 563.344 86.9066 52.6311 -122.202 -123.078
