#Rx
# X(m), Y(m), Z(m), Distance(m), Power (dBm) Phase (deg)
1 697.236 419.529 138.354 176.9 -132.323 -152.831
2 698.649 402.881 137.401 189.553 -138.979 90.875
3 822.447 490.8 134.546 138.207 -123.041 -174.446
4 660.346 636.999 138.594 149.983 -123.782 -90.6691
5 744.262 541.206 136.556 95.9076 -120.422 -10.4443
6 660.088 543.219 140.239 131.19 -122.554 -156.278
7 756.997 636.989 137.912 123.074 -119.717 60.7773
8 773.298 439.121 136.746 155.675 -114.771 121.857
9 808.139 449.481 135.537 157.249 -115.205 73.653
10 722.617 832.053 99.664 278.971 -250 0
