#Rx
# X(m), Y(m), Z(m), Distance(m), Power (dBm) Phase (deg)
1 775.916 532.766 186.861 149.9 -130.451 -104.788
2 750.038 556.106 187.258 144.843 -142.825 140.623
3 737.757 567.182 187.306 145.194 -132.993 94.1186
4 663.466 634.185 188.627 183.471 -146.68 -109.173
5 730.428 541.537 186.375 145.865 -142.803 -49.6563
6 767.24 512.655 186.351 152.902 -133.482 -152.878
7 772.889 444.086 186.644 186.895 -119.828 64.4176
8 758.497 671.549 187.368 183.246 -134.984 -78.1292
9 795.934 504.079 186.342 162.186 -127.237 -2.76781
10 715.247 559.213 187.076 147.79 -134.863 -9.07367
