#Rx
# X(m), Y(m), Z(m), Distance(m), Power (dBm) Phase (deg)
1 675.08 680.641 134.992 167.733 -134.943 -164.551
2 699.191 396.487 135.443 193.808 -137.78 108.96
3 843.841 471.505 130.999 158.846 -118.513 164.247
4 673.649 625.001 136.521 135.26 -129.565 -37.2254
5 834.643 539.045 131.747 127.505 -119.95 -139.384
6 773.272 439.443 134.674 154.173 -113.706 13.4663
7 793.335 515.707 134.497 112.524 -116.288 127.689
8 751.868 701.202 134.479 168.607 -110.574 156.181
9 742.105 744.874 131.623 205.261 -127.475 57.9573
10 718.211 563.809 134.86 96.5031 -134.982 96.6896
