#Rx
# X(m), Y(m), Z(m), Distance(m), Power (dBm) Phase (deg)
1 778.969 530.013 135.293 102.919 -119.271 74.7367
2 752.941 553.487 135.691 93.6526 -125.655 72.7761
3 740.604 564.614 135.74 93.4866 -124.165 161.988
4 664.639 633.127 137.117 144.62 -124.435 24.8453
5 734.892 541.43 134.911 94.8879 -146.797 -137.299
6 766.854 517.342 134.824 103.797 -116.863 160.579
7 772.73 446.016 135.083 149.245 -117.106 -120.707
8 759.385 667.578 135.938 143.103 -110.853 161.983
9 796.826 500.091 134.759 121.16 -112.807 169.334
10 715.39 559.435 135.552 97.936 -126.82 -36.0684
