#Rx
# X(m), Y(m), Z(m), Distance(m), Power (dBm) Phase (deg)
1 685.005 563.673 113.531 93.6796 -125.824 -70.9619
2 688.357 524.167 111.968 97.1039 -116.761 128.654
3 692.255 478.225 112.688 120.41 -122.22 -75.9973
4 740.902 564.345 111.653 69.4536 -106.053 68.8753
5 719.09 541.808 110.582 75.4128 -105.676 43.0721
6 672.091 542.932 113.654 103.988 -120.429 -58.3805
7 763.469 558.43 111.635 71.3021 -103.673 42.1965
8 772.898 443.984 111.042 137.397 -112.373 -144.093
9 773.296 439.147 111.001 141.561 -113.497 9.89145
10 748.384 716.787 110.105 170.748 -110.772 -156.881
