#Rx
# X(m), Y(m), Z(m), Distance(m), Power (dBm) Phase (deg)
1 683.293 616.303 94.2515 98.8833 -141.172 -23.1753
2 660.774 543.202 95.7863 101.895 -118.845 25.5385
3 755.634 653.535 93.3479 106.887 -112.008 -65.6728
4 773.244 439.783 92.1873 132.894 -111.405 88.4029
5 773.427 437.561 92.2327 134.962 -112.307 87.9732
6 803.317 471.055 91.1865 116.467 -109.725 5.33006
7 781.884 566.928 92.6813 62.0604 -101.769 109.253
8 778.611 581.573 92.8845 63.758 -100.988 175.841
9 743.866 736.999 89.7496 183.203 -115.222 118.828
10 731.67 584.688 93.2428 58.2003 -122.172 -84.6165
