#Rx
# X(m), Y(m), Z(m), Distance(m), Power (dBm) Phase (deg)
1 699.178 396.643 87.5081 175.788 -145.818 -167.456
2 717.379 585.561 87.7806 59.3359 -122.805 -123.799
3 669.066 629.135 88.6417 113.249 -140.492 159.806
4 837.293 538.982 83.6284 102.303 -121.93 -158.836
5 721.806 541.743 86.262 53.2139 -109.41 149.022
6 759.131 611.086 88.0172 69.6551 -110.205 -63.8501
7 763.807 554.325 87.3507 48.5673 -121.889 -152.412
8 770.063 478.391 86.53 95.7899 -108.732 -138.814
9 795.691 505.165 86.3593 86.0099 -103.182 -154.935
10 782.48 564.265 87.289 57.9043 -113.62 134.538
