#Rx
# X(m), Y(m), Z(m), Distance(m), Power (dBm) Phase (deg)
1 698.209 408.056 97.591 168.533 -250 0
2 727.173 541.615 96.4788 60.0304 -102.894 -100.802
3 760.779 591.08 97.9252 65.2209 -107.477 -116.603
4 763.101 562.898 97.4493 57.5993 -101.594 169.295
5 800.696 482.776 95.9193 108.657 -107.798 -136.9
6 791.742 522.831 96.5394 79.9473 -103.457 105.212
7 785.037 552.827 97.1769 67.5449 -106.821 116.354
8 724.389 824.127 59.8106 265.573 -250 0
9 722.718 831.602 59.7706 273.143 -250 0
10 715.279 559.262 97.082 62.6173 -109.517 -72.0082
