#Rx
# X(m), Y(m), Z(m), Distance(m), Power (dBm) Phase (deg)
1 686.209 549.484 88.6325 76.2337 -114.908 110.15
2 744.007 561.545 87.2099 44.7574 -122.399 -13.4761
3 693.575 607.03 89.0361 84.4012 -131.314 -31.2331
4 663.581 634.081 88.4884 119.974 -136.493 -138.123
5 848.834 538.706 82.8262 112.484 -131.695 -106.217
6 814.484 421.096 84.6964 160.508 -123.504 -83.6222
7 774.859 598.357 87.8021 65.9865 -106.588 170.885
8 771.416 613.759 87.8758 74.7848 -102.016 -98.7215
9 754.179 690.862 86.8831 138.418 -114.62 92.729
10 728.883 804.022 49.764 244.729 -250 0
