#Rx
# X(m), Y(m), Z(m), Distance(m), Power (dBm) Phase (deg)
1 689.504 510.652 137.484 121.014 -122.354 -119.91
2 694.732 449.043 138.59 155.463 -123.314 42.7771
3 749.423 728.937 134.459 192.363 -110.837 125.091
4 778.913 580.222 137.071 102.134 -116.743 139.576
5 812.086 431.825 134.77 171.189 -117.071 110.789
6 794.165 681.628 134.682 160.02 -121.937 146.309
7 786.052 669.043 135.825 148.996 -112.203 -151.022
8 771.89 647.076 137.024 131.083 -121.659 -110.474
9 718.489 564.242 136.504 98.0163 -121.846 -37.0758
10 715.389 559.433 136.634 98.9651 -122.815 -17.0777
