#Rx
# X(m), Y(m), Z(m), Distance(m), Power (dBm) Phase (deg)
1 699.201 396.371 137.508 194.902 -145.534 167.748
2 715.137 587.583 138.001 104.064 -128.44 15.6156
3 667.751 630.32 138.629 142.492 -123.271 14.7336
4 834.823 539.041 133.8 129.074 -128.409 -32.7626
5 718.953 541.811 136.225 99.2082 -128.838 51.8381
6 759.364 608.262 137.983 107.798 -120.764 114.169
7 764.05 551.376 137.259 96.8243 -127.707 -146.083
8 770.259 476.008 136.533 128.378 -125.96 129.62
9 795.02 508.167 136.406 117.913 -112.848 135.611
10 781.889 566.909 137.326 101.603 -124.466 13.5008
