#Rx
# X(m), Y(m), Z(m), Distance(m), Power (dBm) Phase (deg)
1 686.952 613.003 138.867 124.812 -120.746 -167.635
2 662.192 543.168 140.232 129.823 -129.714 18.2772
3 755.134 659.606 137.834 138.162 -115.256 -167.51
4 773.113 441.365 136.7 153.878 -112.602 35.321
5 773.403 437.851 136.771 156.697 -118.923 -107.56
6 804.65 465.091 135.639 145.32 -118.553 177.023
7 782.99 561.98 137.157 101.626 -119.886 92.0263
8 779.724 576.594 137.36 102.013 -121.087 -117.911
9 745.169 731.167 134.743 194.43 -123.732 141.202
10 734.529 589.122 137.97 100.448 -135.851 55.0473
