#Rx
# X(m), Y(m), Z(m), Distance(m), Power (dBm) Phase (deg)
1 698.278 407.25 140.441 187.611 -141.832 -151.285
2 725.809 541.647 139.36 100.607 -127.36 72.1373
3 760.894 589.691 140.807 103.745 -128.431 34.7586
4 763.235 561.269 140.329 99.3202 -127.343 -6.18324
5 800.425 483.989 138.837 134.224 -112.404 14.9196
6 791.431 524.222 139.46 112.875 -119.55 80.3586
7 784.745 554.133 140.094 105.145 -120.72 -139.355
8 724.237 824.805 102.709 272.429 -250 0
9 722.658 831.868 102.669 279.418 -250 0
10 715.247 559.213 139.981 102.198 -126.137 168.143
