#Rx
# X(m), Y(m), Z(m), Distance(m), Power (dBm) Phase (deg)
1 681.539 604.522 91.006 92.1304 -128.923 145.197
2 684.086 574.501 91.6445 80.352 -126.779 -45.0854
3 685.962 552.396 90.9397 77.5017 -120.989 169.966
4 827.427 486.308 86.1172 118.158 -124.919 78.3542
5 801.757 509.46 88.0351 87.9451 -113.704 16.4366
6 790.749 519.389 88.7575 76.0874 -122.376 -48.012
7 739.443 565.661 89.4357 47.7051 -101.044 89.8452
8 664.256 633.473 90.6908 120.002 -147.769 -4.93918
9 797.391 497.564 88.2975 92.9223 -107.113 -116.217
10 722.448 832.806 51.8599 273.98 -250 0
