#Rx
# X(m), Y(m), Z(m), Distance(m), Power (dBm) Phase (deg)
1 681.829 601.107 97.5042 93.9713 -129.26 -134.186
2 684.429 570.457 97.9146 83.4773 -121.195 -24.0464
3 686.289 548.547 97.2172 81.7804 -121.378 -160.3
4 824.904 488.583 92.7165 117.667 -119.274 68.8192
5 798.719 512.2 94.6701 88.223 -117.734 8.18502
6 787.732 522.109 95.2152 77.16 -105.593 86.4924
7 736.311 568.486 95.9083 54.9164 -100.983 -165.607
8 663.141 634.478 97.1046 124.063 -134.343 123.944
9 796.451 501.766 94.7871 93.1018 -107.4 -114.759
10 722.392 833.06 58.2845 274.532 -250 0
