#Rx
# X(m), Y(m), Z(m), Distance(m), Power (dBm) Phase (deg)
1 686.832 542.147 106.581 89.0114 -116.234 138.985
2 699.179 396.626 105.637 181.291 -156.239 24.1807
3 743.963 561.584 105.58 63.1089 -109.616 133.229
4 668.716 629.45 106.907 122.235 -132.773 24.739
5 751.874 699.175 104.839 152.603 -111.787 149.136
6 761.851 578.073 105.993 67.8692 -106.833 142.061
7 820.542 394 101.67 191.339 -115.898 110.118
8 794.608 510.009 104.563 93.3317 -106.343 -130.776
9 780.822 571.681 105.621 73.0089 -103.955 115.407
10 733.25 784.488 98.9828 231.83 -115.605 -49.2465
