#Rx
# X(m), Y(m), Z(m), Distance(m), Power (dBm) Phase (deg)
1 684.645 567.917 101.53 85.4918 -123.475 -81.8559
2 688.033 527.983 99.9036 87.6224 -115.526 40.7817
3 691.977 481.507 100.473 111.525 -118.748 -129.95
4 743.924 561.62 99.444 56.9813 -99.5559 96.917
5 723.128 541.711 98.4721 63.1493 -103.569 106.387
6 674.672 542.87 101.31 94.005 -114.335 -28.4606
7 763.125 562.604 99.532 59.582 -103.919 141.115
8 772.735 445.959 98.8387 129.967 -109.96 59.7435
9 773.212 440.163 98.817 135.168 -113.837 -18.1106
10 749.338 712.522 98.2706 162.425 -116.632 -11.5766
