#Rx
# X(m), Y(m), Z(m), Distance(m), Power (dBm) Phase (deg)
1 689.719 508.122 93.2678 91.8362 -116.816 98.097
2 695.014 445.715 94.3866 135.464 -137.594 -102.692
3 749.603 726.75 90.3843 173.52 -116.794 -135.811
4 778.381 582.598 92.848 63.9671 -107.455 -161.048
5 811.505 434.425 90.5687 149.561 -111.351 -134.775
6 792.688 679.337 90.6635 136.889 -125.815 70.6073
7 784.596 666.786 91.7024 123.739 -132.262 74.5309
8 770.629 645.12 92.8835 101.922 -106.675 -31.9061
9 717.934 563.38 92.2127 57.1678 -107.169 -56.8778
10 715.279 559.262 92.38 58.566 -116.74 -64.9128
