#Rx
# X(m), Y(m), Z(m), Distance(m), Power (dBm) Phase (deg)
1 684.645 567.917 142.448 117.524 -122.617 -76.092
2 688.033 527.983 140.821 118.523 -128.053 39.133
3 691.977 481.507 141.391 137.312 -139.527 -71.8261
4 743.924 561.62 140.362 97.8737 -123.04 -29.7277
5 723.128 541.711 139.39 101.196 -128.422 45.3813
6 674.672 542.87 142.228 123.782 -120.847 131.277
7 763.125 562.604 140.45 99.4465 -126.438 124.017
8 772.735 445.959 139.756 152.231 -115.291 -87.9605
9 773.212 440.163 139.735 156.689 -110.9 111.806
10 749.338 712.522 139.188 180.605 -113.538 81.0577
