#Rx
# X(m), Y(m), Z(m), Distance(m), Power (dBm) Phase (deg)
1 674.991 681.687 134.984 168.52 -129.305 51.883
2 699.178 396.643 135.496 193.705 -139.094 -60.8816
3 844.784 470.654 130.987 159.896 -121.542 -17.6804
4 674.377 624.344 136.581 134.599 -139.658 -61.0224
5 835.813 539.017 131.719 128.306 -121.219 -74.247
6 773.244 439.778 134.72 153.934 -114.672 -11.095
7 793.641 514.338 134.529 113.224 -113.23 87.2254
8 752.202 699.708 134.567 167.418 -112.613 62.2347
9 742.407 743.526 131.78 204.111 -110.407 125.727
10 718.501 564.26 134.932 96.5077 -122.353 1.98491
