#Rx
# X(m), Y(m), Z(m), Distance(m), Power (dBm) Phase (deg)
1 680.938 611.61 138.797 127.143 -127.095 -59.2611
2 697.715 413.88 137.855 181.026 -148.498 -46.0177
3 660.873 636.524 138.462 149.355 -119.246 36.4095
4 773.135 540.516 137.073 100.278 -123.312 53.04
5 726.123 541.64 136.418 97.7161 -129.169 -56.1745
6 810.388 439.423 135.341 165.227 -111.217 41.2995
7 781.247 569.78 137.366 101.651 -121.054 49.3781
8 744.941 732.189 134.804 195.361 -120.033 56.1291
9 741.546 747.376 133.496 208.34 -118.41 -47.6896
10 725.736 818.097 99.764 265.144 -250 0
