#Rx
# X(m), Y(m), Z(m), Distance(m), Power (dBm) Phase (deg)
1 699.178 396.643 98.5707 178.939 -144.778 -150.079
2 717.379 585.561 98.8432 68.1503 -125.074 -49.5278
3 669.066 629.135 99.7044 118.187 -129.919 104.273
4 837.293 538.982 94.6911 107.227 -123.813 131.151
5 721.806 541.743 97.3246 62.6245 -100.75 116.561
6 759.131 611.086 99.0798 77.3355 -108.136 69.3794
7 763.807 554.325 98.4133 58.932 -105.704 -160.175
8 770.063 478.391 97.5926 101.35 -113.318 -178.664
9 795.691 505.165 97.4219 92.141 -112.495 34.8504
10 782.48 564.265 98.3516 66.8262 -108.858 97.764
