#Rx
# X(m), Y(m), Z(m), Distance(m), Power (dBm) Phase (deg)
1 779.349 529.67 99.6889 72.8007 -114.01 35.0117
2 797.238 539.939 99.3733 79.1177 -112.682 93.0701
3 762.378 571.674 100.468 61.3355 -104.893 112.41
4 764.236 549.126 100.009 61.2808 -103.266 171.716
5 769.238 488.406 99.2989 94.282 -107.217 135.717
6 773.214 440.137 99.6451 135.538 -111.5 -79.6817
7 810.939 436.959 98.1237 149.825 -112.845 -132.146
8 807.724 451.337 98.3463 136.871 -108.674 -43.7973
9 724.282 573.228 100.335 63.1568 -105.317 -107.913
10 717.417 562.579 99.815 64.0775 -106.793 -172.281
