#Rx
# X(m), Y(m), Z(m), Distance(m), Power (dBm) Phase (deg)
1 677.137 656.396 96.524 130.193 -137.164 124.246
2 682.617 591.814 97.5002 89.7326 -123.237 -57.3933
3 845.644 469.878 91.2158 142.905 -117.275 -143.219
4 670.566 542.968 97.8813 95.1045 -123.55 -107.935
5 751.559 703.005 94.7754 152.353 -118.18 74.8721
6 754.317 669.521 95.7436 122.051 -107.562 -24.6872
7 761.399 583.559 96.1051 60.5237 -109.936 -27.9243
8 762.935 564.912 95.7428 56.0644 -106.329 -86.0701
9 723.232 829.3 58.0401 270.706 -250 0
10 719.728 566.163 95.4391 59.399 -102.063 67.9779
