#Rx
# X(m), Y(m), Z(m), Distance(m), Power (dBm) Phase (deg)
1 682.239 596.275 89.1279 86.9101 -123.626 77.0806
2 687.575 533.387 88.0173 78.6858 -113.49 67.2725
3 726.725 577.131 87.6146 51.9443 -108.977 -171.391
4 752.958 686.018 87.0905 133.847 -113.488 -162.698
5 755.08 660.266 87.8277 110.4 -120.032 -21.2883
6 769.321 623.128 87.9908 81.2177 -105.559 -22.2652
7 751.632 702.258 86.5204 149.012 -110.793 35.1438
8 724.732 822.593 49.764 263.552 -250 0
9 783.021 664.343 86.4422 119.109 -132.63 164.036
