#Rx
# X(m), Y(m), Z(m), Distance(m), Power (dBm) Phase (deg)
1 689.933 505.597 92.2766 92.6207 -114.404 -123.474
2 695.287 442.494 93.4063 137.726 -154.096 -142.335
3 749.783 724.556 89.5351 171.181 -117.582 15.5261
4 777.849 584.979 91.8502 63.8078 -102.081 176.66
5 810.924 437.023 89.578 146.808 -113.42 -156.744
6 791.214 677.051 89.8699 134.115 -136.054 73.5997
7 783.141 664.529 90.8049 120.983 -133.288 0.894546
8 769.368 643.165 91.9479 99.525 -107.778 -85.3112
9 717.432 562.602 91.1681 56.4727 -114.696 -143.833
10 715.231 559.188 91.3501 57.7183 -107.892 17.9772
