#Rx
# X(m), Y(m), Z(m), Distance(m), Power (dBm) Phase (deg)
1 698.066 409.744 138.345 184.543 -131.6 66.8703
2 729.903 541.549 137.149 97.7425 -121.436 -167.09
3 760.55 593.861 138.593 102.897 -121.924 -101.62
4 762.832 566.162 138.123 97.2656 -127.932 84.9612
5 801.24 480.345 136.517 135.022 -117.131 31.6109
6 792.364 520.049 137.131 112.678 -117.522 -159.555
7 785.619 550.22 137.776 103.626 -123.83 -108.396
8 724.71 822.687 100.446 269.839 -250 0
9 722.86 830.965 100.406 278.043 -250 0
10 715.391 559.435 137.715 99.9933 -124.289 -48.0413
