#Rx
# X(m), Y(m), Z(m), Distance(m), Power (dBm) Phase (deg)
1 673.648 697.518 86.548 161.506 -138.451 103.486
2 793.264 517.12 87.1869 77.8936 -119.498 28.7121
3 757.913 549.003 87.6164 47.9188 -99.1068 178.996
4 723.797 579.772 88.2789 54.5662 -118.112 10.4076
5 806.831 455.334 86.2473 128.713 -107.797 50.6533
6 803.342 470.941 86.3489 114.631 -109.757 141.038
7 784.768 554.03 87.7665 59.879 -118.918 -165.226
8 758.132 673.181 87.9101 122.544 -111.403 68.9983
9 754.609 620.269 88.7449 76.439 -102.083 -135.781
10 715.569 559.712 87.5494 54.3455 -115.302 138.679
