#Rx
# X(m), Y(m), Z(m), Distance(m), Power (dBm) Phase (deg)
1 682.67 591.196 88.3601 84.1717 -127.525 45.0506
2 684.012 575.38 88.5611 78.7309 -130.489 158.44
3 689.091 515.525 86.8298 84.7337 -111.422 -167.692
4 659.823 543.225 89.2402 99.4498 -121.007 -36.616
5 754.281 669.967 86.4373 118.7 -113.182 -154.191
6 755.545 654.622 86.8648 104.932 -104.461 115.617
7 760.622 592.994 86.7841 57.1086 -101.578 -114.431
8 772.747 445.806 85.7317 124.991 -110.092 161.312
9 799.559 487.863 84.9741 99.3701 -108.865 -45.6062
10 778.827 580.603 86.5384 58.6467 -104.51 -92.4697
