#Rx
# X(m), Y(m), Z(m), Distance(m), Power (dBm) Phase (deg)
1 673.533 698.876 140.22 184.615 -139.243 -160.459
2 794.18 516.293 140.875 117.918 -121.208 152.76
3 758.864 548.145 141.354 100.366 -130.963 48.4625
4 724.907 578.771 142.014 103.419 -129.906 81.83
5 807.124 454.024 139.979 156.412 -114.484 -9.83152
6 803.635 469.628 140.08 144.935 -127.524 -138.306
7 785.048 552.777 141.501 106.646 -121.099 46.1477
8 758.4 671.983 141.689 150.092 -111.167 23.2577
9 755.38 621.466 142.473 117.711 -125.677 -40.8971
10 715.585 559.737 141.301 103.354 -128.593 72.7109
