#Rx
# X(m), Y(m), Z(m), Distance(m), Power (dBm) Phase (deg)
1 699.086 397.728 187.407 222.541 -133.977 154.618
2 732.912 571.551 187.38 145.904 -135.653 -57.6402
3 707.772 594.225 188.726 154.945 -139.454 -2.255
4 817.544 539.454 185.001 160.75 -128.54 127.474
5 748.743 737.184 184.216 226.888 -119.582 43.434
6 750.538 715.397 185.88 211.471 -125.845 16.4911
7 814.555 420.782 184.581 210.385 -117.953 98.0336
8 751.2 704.189 186.576 203.884 -117.785 9.36832
9 737.82 764.044 182.213 247.415 -120.194 -74.6476
10 785.693 668.487 186.337 184.465 -121.755 -156.314
