#Rx
# X(m), Y(m), Z(m), Distance(m), Power (dBm) Phase (deg)
1 682.304 595.507 91.4236 87.8019 -144.542 -111.829
2 683.646 579.695 91.6245 81.7732 -126.239 83.1753
3 688.746 519.59 89.9225 84.6031 -131.003 -115.888
4 660.087 543.219 92.3782 100.738 -120.107 120.122
5 754.005 673.313 89.497 122.924 -106.458 82.0932
6 755.266 658.002 89.9886 109.285 -109.062 -57.4395
7 760.329 596.552 89.983 61.5932 -111.253 -143.595
8 772.568 447.981 88.8437 124.096 -111.301 -123.429
9 800.376 484.21 88.074 103.806 -106.229 -166.05
10 780.001 575.351 89.6219 60.0834 -106.397 62.1734
