#Rx
# X(m), Y(m), Z(m), Distance(m), Power (dBm) Phase (deg)
1 683.293 616.303 188.796 168.813 -123.405 55.3777
2 660.774 543.202 190.331 171.443 -136.15 -64.1462
3 755.634 653.535 187.893 173.129 -123.156 -72.949
4 773.244 439.783 186.732 189.711 -117.458 78.326
5 773.427 437.561 186.777 191.188 -122.314 -173.35
6 803.317 471.055 185.731 178.059 -125.095 23.8502
7 781.884 566.928 187.226 149.246 -130.823 71.1744
8 778.611 581.573 187.429 150.088 -132.352 22.1448
9 743.866 736.999 184.294 226.786 -117.906 -165.397
10 731.67 584.688 187.787 148.042 -131.419 -130.122
