#Rx
# X(m), Y(m), Z(m), Distance(m), Power (dBm) Phase (deg)
1 678.023 645.961 188.5 182.536 -139.006 -99.002
2 691.462 487.571 188.286 171.659 -121.533 82.074
3 668.953 543.007 189.758 167.042 -122.257 -136.135
4 773.032 442.354 186.68 188.022 -122.254 153.515
5 756.687 640.754 187.876 166.621 -125.142 -30.3646
6 758.82 614.86 188.202 156.193 -125.111 -156.765
7 768.034 503.022 186.502 156.403 -138.078 -40.4926
8 780.002 659.659 186.719 178.551 -121 -163.215
9 769.18 642.873 187.82 168.867 -129.898 32.5581
10 717.191 562.228 186.899 147.239 -137.477 104.072
