#Rx
# X(m), Y(m), Z(m), Distance(m), Power (dBm) Phase (deg)
1 698.209 408.056 187.584 215.438 -133.166 175.256
2 727.173 541.615 186.472 146.334 -129.423 -153.457
3 760.779 591.08 187.919 149.413 -140.19 74.3794
4 763.101 562.898 187.443 145.953 -132.386 -74.9065
5 800.696 482.776 185.913 171.801 -124.244 -47.6485
6 791.742 522.831 186.533 155.604 -134.75 -151.822
7 785.037 552.827 187.17 149.993 -130.684 -45.7455
8 724.389 824.127 149.804 285.901 -250 0
9 722.718 831.602 149.764 292.934 -250 0
10 715.279 559.262 187.075 147.782 -131.185 -0.59132
