#Rx
# X(m), Y(m), Z(m), Distance(m), Power (dBm) Phase (deg)
1 779.349 529.67 100.549 73.4782 -105.135 158.724
2 797.238 539.939 100.234 79.7382 -114.984 151.343
3 762.378 571.674 101.328 62.149 -97.9995 -160.649
4 764.236 549.126 100.869 62.0887 -101.968 160.573
5 769.238 488.406 100.159 94.8027 -107.296 80.7899
6 773.214 440.137 100.506 135.903 -112.424 -106.026
7 810.939 436.959 98.9841 150.147 -114.394 20.1947
8 807.724 451.337 99.2067 137.225 -109.029 85.2089
9 724.282 573.228 101.195 63.9453 -103.306 -14.5368
10 717.417 562.579 100.675 64.848 -102.445 101.588
