#Rx
# X(m), Y(m), Z(m), Distance(m), Power (dBm) Phase (deg)
1 681.732 602.247 88.9992 89.8618 -133.232 117.697
2 684.315 571.803 89.4855 78.4204 -122.39 -36.6936
3 686.18 549.83 88.7858 76.3026 -121.036 87.6537
4 825.745 487.825 84.1779 115.341 -111.037 145.393
5 799.73 511.288 86.1196 84.6194 -123.903 121.798
6 788.738 521.202 86.7486 72.7161 -119.858 -164.136
7 737.354 567.545 87.4118 46.3318 -121.076 -127.616
8 663.494 634.16 88.6276 120.136 -125.136 174.154
9 796.764 500.367 86.285 89.7116 -110.4 155.793
10 722.404 833.003 49.804 274.118 -250 0
