#Rx
# X(m), Y(m), Z(m), Distance(m), Power (dBm) Phase (deg)
1 681.925 599.971 89.0483 88.7007 -132.09 143.978
2 684.544 569.112 89.3827 77.8183 -127.213 141.566
3 686.398 547.262 88.6877 76.458 -110.78 167.166
4 824.063 489.342 84.2943 113.275 -113.704 -37.0566
5 797.706 513.114 86.2598 82.369 -114.098 28.2768
6 786.726 523.017 86.7208 70.5674 -114.769 -148.931
7 735.265 569.43 87.4438 47.1381 -125.734 -60.1173
8 662.807 634.779 88.6209 120.988 -125.79 46.3332
9 796.138 503.167 86.3284 87.5364 -103.565 -36.396
10 722.385 833.089 49.804 274.205 -250 0
