#Rx
# X(m), Y(m), Z(m), Distance(m), Power (dBm) Phase (deg)
1 673.509 699.153 135.833 182.551 -150.099 -12.5651
2 687.68 532.15 137.97 115.269 -118.987 104.376
3 696.57 427.372 138.807 171.184 -129.061 -36.9632
4 699.085 397.735 137.407 193.736 -132.85 145.323
5 659.259 543.239 140.411 131.86 -127.228 103.473
6 752.524 691.29 136.978 161.868 -123.976 -36.8526
7 817.205 408.925 134.114 190.481 -115.344 124.605
8 803.269 471.267 135.734 140.86 -111.083 89.6615
9 776.246 592.151 137.576 104.802 -118.446 -175.226
10 756.875 678.804 137.061 152.217 -122.658 -112.741
