#Rx
# X(m), Y(m), Z(m), Distance(m), Power (dBm) Phase (deg)
1 699.157 396.892 140.664 196.036 -146.907 173.099
2 749.904 556.227 140.376 98.0025 -121.797 -75.4792
3 760.558 540.816 140.025 100.431 -133.103 -77.5621
4 759.163 610.703 141.409 111.903 -123.843 -127.053
5 750.201 708.66 139.729 177.669 -114.597 -22.5305
6 811.273 435.462 138.576 170.283 -108.992 -91.1618
7 780.738 572.058 140.653 104.793 -118.361 97.1095
8 719.733 566.171 140.279 101.411 -137.558 41.6246
9 717.073 562.045 140.257 101.945 -123.528 113.302
10 715.617 559.787 140.185 102.279 -131.234 -96.1837
