#Rx
# X(m), Y(m), Z(m), Distance(m), Power (dBm) Phase (deg)
1 693.971 458.005 89.0554 123.593 -139.912 117.835
2 696.429 429.044 89.3714 147.653 -250 0
3 726.356 577.464 87.9264 52.4622 -101.437 -46.0533
4 750.098 720.74 85.7435 166.5 -128.342 151.959
5 757.124 635.456 88.233 88.92 -105.244 -15.4278
6 768.528 497.025 86.6748 80.1413 -105.452 -157.363
7 771.759 457.802 86.7196 114.286 -110.907 -142.453
8 773.419 437.649 87.0817 133.068 -114.265 80.9462
9 804.043 467.806 86.087 117.331 -112.515 -5.20681
10 722.297 570.147 87.6335 51.9589 -102.361 -136.447
