#Rx
# X(m), Y(m), Z(m), Distance(m), Power (dBm) Phase (deg)
1 682.304 595.507 141.742 123.135 -128.13 175.547
2 683.646 579.695 141.943 118.997 -131.676 132.434
3 688.746 519.59 140.241 120.249 -122.152 -132.193
4 660.087 543.219 142.697 133.031 -121.216 -172.17
5 754.005 673.313 139.816 149.565 -111.855 -156.958
6 755.266 658.002 140.307 138.751 -119.285 128.647
7 760.329 596.552 140.302 105.365 -120.345 -173.314
8 772.568 447.981 139.162 150.31 -120.458 151.271
9 800.376 484.21 138.393 133.76 -110.971 -85.6193
10 780.001 575.351 139.941 104.316 -127.028 41.1009
