#Rx
# X(m), Y(m), Z(m), Distance(m), Power (dBm) Phase (deg)
1 686.832 542.147 88.3522 76.9408 -108.076 79.7894
2 699.179 396.626 87.4081 175.777 -145.972 127.745
3 743.963 561.584 87.3506 44.9012 -120.639 116.398
4 668.716 629.45 88.6783 113.695 -134.97 -131.072
5 751.874 699.175 86.61 146.109 -112.294 102.309
6 761.851 578.073 87.7636 51.2304 -114.619 176.437
7 820.542 394 83.4405 186.512 -128.476 -73.6187
8 794.608 510.009 86.3343 82.3483 -120.908 -87.7336
9 780.822 571.681 87.3919 57.9843 -107.75 128.643
10 733.25 784.488 80.7536 228.077 -114.47 110.081
