#Rx
# X(m), Y(m), Z(m), Distance(m), Power (dBm) Phase (deg)
1 680.617 615.383 88.0416 97.026 -131.966 113.388
2 695.267 442.734 88.4145 135.761 -137.174 168.593
3 800.766 539.855 85.5333 72.4911 -114.8 -28.6988
4 764.322 548.083 86.3816 49.0023 -107.969 -152.077
5 748.996 734.114 83.7955 178.964 -126.286 -54.8816
6 755.943 649.784 87.2544 100.801 -104.137 132.438
7 826.401 367.791 81.07 211.883 -131.747 118.185
8 789.34 533.575 86.1888 66.9577 -110.349 -123.524
9 786.78 670.174 85.4231 125.066 -144.983 -122.274
10 745.354 605.913 87.4779 64.26 -103.407 -57.0149
