#Rx
# X(m), Y(m), Z(m), Distance(m), Power (dBm) Phase (deg)
1 778.435 530.494 136.783 103.959 -114.991 73.4613
2 795.633 539.978 136.564 108.203 -118.15 121.435
3 762.501 570.187 137.53 96.9649 -126.931 89.7341
4 764.35 547.734 137.045 97.0645 -132.357 75.4108
5 769.358 486.953 136.38 121.204 -111.782 167.601
6 773.244 439.776 136.732 155.149 -113.836 -123.453
7 810.663 438.193 135.222 166.166 -115.598 -34.1005
8 807.447 452.577 135.445 154.758 -108.99 11.0075
9 723.701 572.326 137.377 98.2161 -123.919 -88.3866
10 717.191 562.228 136.899 98.6998 -126.798 73.3028
