#Rx
# X(m), Y(m), Z(m), Distance(m), Power (dBm) Phase (deg)
1 680.617 615.383 97.7181 101.924 -138.437 164.569
2 695.267 442.734 98.0909 139.33 -151.447 81.6323
3 800.766 539.855 95.2098 78.6191 -118.349 -82.3196
4 764.322 548.083 96.0581 57.8243 -102.495 -118.204
5 748.996 734.114 93.4719 181.44 -123.169 130.529
6 755.943 649.784 96.9309 105.452 -106.505 17.578
7 826.401 367.791 90.7465 213.855 -120.788 97.3365
8 789.34 533.575 95.8653 73.6343 -105.368 59.2706
9 786.78 670.174 95.0996 128.707 -147.832 87.5207
10 745.354 605.913 97.1544 71.3651 -99.5951 160.119
