#Rx
# X(m), Y(m), Z(m), Distance(m), Power (dBm) Phase (deg)
1 776.935 531.847 111.24 80.4453 -105.342 -170.584
2 751.007 555.232 111.637 69.4583 -103.089 70.1551
3 738.706 566.326 111.685 69.8325 -106.812 103.035
4 663.838 633.85 113.025 131.053 -122.736 -43.9054
5 731.916 541.501 110.788 72.1155 -122.428 51.9025
6 767.112 514.218 110.743 84.8272 -110.417 136.741
7 772.838 444.703 111.026 136.771 -112.857 0.292608
8 758.793 670.226 111.793 130.811 -117.988 136.677
9 796.231 502.75 110.716 102.23 -109.937 63.8476
10 715.279 559.262 111.47 75.4843 -105.194 -49.6959
