#Rx
# X(m), Y(m), Z(m), Distance(m), Power (dBm) Phase (deg)
1 778.969 530.013 136.814 104.292 -120.615 127.951
2 752.941 553.487 137.213 95.1667 -128.755 -37.6857
3 740.604 564.614 137.262 95.0041 -131.182 -126.654
4 664.639 633.127 138.639 145.62 -121.241 -124.157
5 734.892 541.43 136.433 96.3703 -128.441 136.546
6 766.854 517.342 136.346 105.153 -123.158 119.314
7 772.73 446.016 136.605 150.193 -114.158 -37.9875
8 759.385 667.578 137.46 144.101 -113.46 -134.65
9 796.826 500.091 136.281 122.322 -120.758 -92.9909
10 715.39 559.435 137.073 99.3827 -131.744 83.3544
