#Rx
# X(m), Y(m), Z(m), Distance(m), Power (dBm) Phase (deg)
1 689.252 513.619 88.5991 86.5705 -115.751 124.712
2 786.158 523.529 87.235 70.299 -114.988 -120.413
3 668.547 629.602 89.1588 114.097 -140.42 -136.875
4 738.089 541.354 87.097 48.9598 -96.8624 34.6078
5 763.251 561.073 88.043 48.6907 -98.1825 57.4224
6 765.7 531.349 87.1559 56.5776 -104.004 -17.9882
7 824.213 377.578 83.1461 202.596 -131.807 2.73973
8 785.651 550.077 87.6142 60.8593 -111.634 -52.5873
9 772.524 608.801 88.4291 72.0578 -106.698 -71.7163
10 784.531 666.685 86.9258 121.811 -124.645 82.3417
