#Rx
# X(m), Y(m), Z(m), Distance(m), Power (dBm) Phase (deg)
1 673.267 702.006 131.411 182.638 -131.625 51.0373
2 687.441 534.961 133.823 111.318 -116.689 -152.294
3 696.357 429.89 134.73 167.019 -134.35 -65.9368
4 699.036 398.321 133.152 191.204 -149.636 179.456
5 659.464 543.234 136.157 128.595 -127.154 139.464
6 752.306 693.932 132.647 161.554 -110.32 151.518
7 817.78 406.353 129.737 190.699 -113.512 175.915
8 803.84 468.713 131.44 139.947 -111.447 101.795
9 776.953 588.986 133.277 100.173 -117.718 -5.39061
10 757.557 675.752 132.877 147.295 -109.355 28.7436
