#Rx
# X(m), Y(m), Z(m), Distance(m), Power (dBm) Phase (deg)
1 693.971 458.005 138.582 149.457 -124.411 -76.849
2 696.429 429.044 138.898 169.985 -128.499 115.164
3 726.356 577.464 137.453 98.5015 -123.031 169.567
4 750.098 720.74 135.271 185.624 -119.113 103.43
5 757.124 635.456 137.76 122.014 -114.353 172.439
6 768.528 497.025 136.202 115.104 -118.361 -53.7399
7 771.759 457.802 136.247 141.039 -119.569 -179.203
8 773.419 437.649 136.609 156.76 -116.973 21.6739
9 804.043 467.806 135.614 143.299 -112.207 9.38767
10 722.297 570.147 137.161 98.0866 -124.324 -79.0229
