#Rx
# X(m), Y(m), Z(m), Distance(m), Power (dBm) Phase (deg)
1 674.991 681.687 87.3537 147.85 -133.207 138.357
2 699.178 396.643 87.8655 175.879 -151.319 175.083
3 844.784 470.654 83.3566 139.314 -121.014 -41.3392
4 674.377 624.344 88.9508 106.89 -155.001 96.8266
5 835.813 539.017 84.0887 101.165 -124.424 170.082
6 773.244 439.778 87.0895 131.079 -118.184 -105.272
7 793.641 514.338 86.8987 79.5223 -112.959 99.5276
8 752.202 699.708 86.9365 146.729 -109.089 169.928
9 742.407 743.526 84.1493 188.222 -117.278 -129.7
10 718.501 564.26 87.3018 52.7202 -116.042 -47.2422
