#Rx
# X(m), Y(m), Z(m), Distance(m), Power (dBm) Phase (deg)
1 681.173 608.832 141.975 128.365 -131.131 -99.781
2 697.874 412.012 140.841 184.073 -129.428 90.2918
3 660.765 636.621 141.579 151.485 -122.623 51.4397
4 770.356 540.582 140.155 102.48 -121.776 36.0051
5 723.715 541.697 139.505 101.178 -130.178 123.583
6 809.868 441.748 138.495 165.146 -120.282 126.117
7 780.596 572.693 140.524 104.7 -117.914 -77.933
8 744.354 734.813 137.72 199.059 -110.074 -97.5793
9 740.96 749.995 136.412 211.987 -113.196 143.538
10 725.299 820.055 102.882 267.769 -250 0
