#Rx
# X(m), Y(m), Z(m), Distance(m), Power (dBm) Phase (deg)
1 688.158 526.513 187.855 159.963 -132.837 -156.217
2 698.996 398.791 187.546 221.876 -129.463 -179.826
3 783.161 526.232 186.71 152.679 -129.186 17.31
4 749.733 725.167 185.171 218.271 -115.283 126.962
5 758.687 616.476 188.221 156.775 -131.834 66.1041
6 772.141 453.172 186.459 181.143 -120.691 -153.384
7 816.709 411.145 184.22 217.338 -120.09 108.047
8 752.181 699.803 186.577 200.835 -120.288 41.93
9 722.54 832.395 149.664 293.646 -250 0
