#Rx
# X(m), Y(m), Z(m), Distance(m), Power (dBm) Phase (deg)
1 688.787 519.097 87.8911 83.6933 -128.704 -21.5231
2 790.808 519.335 86.5975 74.859 -113.815 139.198
3 670.95 627.435 88.5601 110.902 -133.136 -13.814
4 742.961 541.237 86.5387 47.9438 -112.578 148.035
5 762.784 566.753 87.4887 48.4681 -113.699 -62.2474
6 765.258 536.712 86.7012 53.5245 -107.081 -175.909
7 825.437 372.103 82.1102 207.804 -135.564 123.731
8 786.99 544.088 86.909 62.4775 -110.763 -6.82464
9 773.729 603.408 87.7322 68.5349 -103.708 11.7093
10 787.423 671.171 86.0385 126.366 -140.384 -84.1668
