#Rx
# X(m), Y(m), Z(m), Distance(m), Power (dBm) Phase (deg)
1 698.066 409.744 137.704 184.211 -133.337 95.7317
2 729.903 541.549 136.508 97.1215 -129.246 60.7779
3 760.55 593.861 137.952 102.298 -132.41 -73.1801
4 762.832 566.162 137.482 96.635 -135.537 88.1501
5 801.24 480.345 135.875 134.577 -112.86 106.034
6 792.364 520.049 136.49 112.14 -116.263 105.378
7 785.619 550.22 137.134 103.036 -122.623 -72.873
8 724.71 822.687 99.804 269.702 -250 0
9 722.86 830.965 99.764 277.91 -250 0
10 715.391 559.435 137.073 99.3827 -131.856 94.8043
