#Rx
# X(m), Y(m), Z(m), Distance(m), Power (dBm) Phase (deg)
1 679.479 628.801 87.4609 105.726 -129.755 106.819
2 690.687 496.714 87.0577 95.121 -115.527 176.268
3 749.347 729.853 83.4583 174.748 -109.521 -0.79444
4 750.737 712.987 84.9951 158.843 -117.492 -50.8353
5 765.735 530.924 85.2961 55.3571 -109.628 160.579
6 769.706 482.722 85.3005 91.4533 -111.12 -108.289
7 808.418 448.235 84.2534 134.643 -118.22 -9.39719
8 768.995 624.586 86.7551 81.5874 -107.934 -17.5355
9 730.365 797.391 48.5395 237.981 -148.644 -130.036
10 715.618 559.788 85.7045 52.7988 -110.408 45.2998
