#Rx
# X(m), Y(m), Z(m), Distance(m), Power (dBm) Phase (deg)
1 689.719 508.122 137.963 122.342 -119.669 -35.0303
2 695.014 445.715 139.082 158.064 -123.247 62.5581
3 749.603 726.75 135.08 190.749 -120.327 130.181
4 778.381 582.598 137.543 102.898 -124.681 69.627
5 811.505 434.425 135.264 169.295 -119.178 -172.668
6 792.688 679.337 135.359 158.239 -111.657 19.5738
7 784.596 666.786 136.398 147.327 -111.897 -106.284
8 770.629 645.12 137.579 129.952 -123.948 84.6438
9 717.934 563.38 136.908 98.5271 -132.379 -177.058
10 715.279 559.262 137.075 99.4202 -139.575 -171.574
