#Rx
# X(m), Y(m), Z(m), Distance(m), Power (dBm) Phase (deg)
1 687.175 538.1 132.773 109.932 -123.82 -164.518
2 699.194 396.45 131.984 192.204 -144.757 -89.1541
3 740.567 564.648 131.978 89.7402 -123.578 178.056
4 667.057 630.946 133.238 139.623 -129.723 15.5384
5 752.292 694.099 131.333 160.964 -108.703 -164.877
6 762.245 573.286 132.282 92.1796 -122.113 158.772
7 819.706 397.741 128.195 197.738 -115.239 85.9111
8 793.721 513.977 130.972 110.537 -121.496 -7.1502
9 780.035 575.202 132.017 96.9458 -116.219 -33.0372
10 732.395 788.312 124.976 243.125 -117.253 -161.573
