#Rx
# X(m), Y(m), Z(m), Distance(m), Power (dBm) Phase (deg)
1 677.402 653.28 138.281 150.255 -122.679 113.709
2 699.029 398.399 137.546 193.263 -136.633 13.0571
3 743.823 541.217 136.69 96.0461 -133.218 104.392
4 727.126 541.616 136.472 97.5727 -131.445 -77.9654
5 767.98 503.68 136.361 111.627 -123.692 -47.1391
6 770.739 470.186 136.539 132.354 -120.3 84.9754
7 773.412 437.737 136.774 156.789 -115.42 134.793
8 758.983 669.373 137.278 145.291 -109.853 126.237
9 724.787 822.347 99.804 269.364 -250 0
10 800.404 691.307 134.257 169.164 -115.121 -37.5544
