#Rx
# X(m), Y(m), Z(m), Distance(m), Power (dBm) Phase (deg)
1 681.635 603.385 188.975 165.75 -129.801 100.57
2 684.201 573.154 189.537 160.016 -140.729 -178.68
3 686.071 551.114 188.835 158.359 -126.111 -5.52751
4 826.585 487.068 184.12 178.5 -130.18 -110.148
5 800.742 510.376 186.05 161.428 -126.935 -139.918
6 789.744 520.294 186.763 155.869 -125.889 -162.138
7 738.401 566.601 187.396 145.221 -135.374 63.6673
8 663.865 633.825 188.631 183.149 -139.888 26.8912
9 797.077 498.966 186.263 164.302 -126.888 135.558
10 722.423 832.918 149.804 294.192 -250 0
