#Rx
# X(m), Y(m), Z(m), Distance(m), Power (dBm) Phase (deg)
1 699.125 397.268 137.407 194.118 -135.093 -163.841
2 752.153 554.198 137.085 94.939 -129.544 -80.33
3 763.356 540.75 136.805 97.7798 -137.526 15.7208
4 758.983 612.892 138.179 110.073 -124.612 -19.9149
5 750.731 706.287 136.528 173.951 -110.879 163.608
6 811.854 432.865 135.28 170.598 -117.956 -156.075
7 781.318 569.461 137.361 101.642 -116.22 -3.86846
8 720.459 567.298 137.07 98.2068 -125.275 -172.609
9 717.602 562.866 136.991 98.6852 -135.06 36.4227
10 715.728 559.959 136.927 99.1381 -130.526 -179.957
