#Rx
# X(m), Y(m), Z(m), Distance(m), Power (dBm) Phase (deg)
1 673.111 703.842 135.698 186.238 -129.673 140.948
2 682.629 591.675 139.227 119.878 -118.292 79.9936
3 687.863 529.99 137.888 115.649 -127.634 -157.607
4 723.466 580.071 137.665 99.8119 -123.311 133.843
5 753.21 682.959 137.179 155.34 -110.135 137.009
6 755.332 657.201 137.857 136.469 -114.704 -134.026
7 768.39 627.292 137.959 118.901 -114.957 -134.137
8 750.687 706.487 136.423 174.062 -124.249 114.182
9 724.204 824.952 99.764 271.939 -250 0
10 780.441 660.34 136.679 141.844 -115.051 -179.043
