#Rx
# X(m), Y(m), Z(m), Distance(m), Power (dBm) Phase (deg)
1 689.933 505.597 137.369 122.878 -129.632 121.954
2 695.287 442.494 138.499 159.971 -122.433 26.187
3 749.783 724.556 134.628 188.616 -117.606 166.82
4 777.849 584.979 136.943 102.729 -129.224 53.5924
5 810.924 437.023 134.671 166.822 -116.22 -103.074
6 791.214 677.051 134.963 155.853 -118.156 -55.4948
7 783.141 664.529 135.898 144.998 -114.611 -53.721
8 769.368 643.165 137.041 128.047 -117.337 -107.558
9 717.432 562.602 136.261 98.0283 -125.555 139.592
10 715.231 559.188 136.443 98.8341 -123.255 62.4327
