#Rx
# X(m), Y(m), Z(m), Distance(m), Power (dBm) Phase (deg)
1 677.508 652.031 139.309 150.095 -122.414 47.9636
2 699.059 398.039 138.561 194.057 -131.276 -60.7156
3 742.243 541.254 137.684 97.0616 -128.351 166.443
4 725.638 541.651 137.466 98.8202 -128.523 -22.8353
5 768.072 502.565 137.377 113.062 -119.857 -117.648
6 770.849 468.856 137.555 133.999 -113.648 9.74826
7 773.419 437.649 137.79 157.471 -116.449 -89.1967
8 758.71 670.593 138.265 146.829 -121.894 57.0196
9 724.623 823.076 100.818 270.304 -250 0
10 799.745 690.285 135.377 168.773 -115.438 19.3145
