#Rx
# X(m), Y(m), Z(m), Distance(m), Power (dBm) Phase (deg)
1 699.191 396.488 87.5083 175.928 -146.917 -133.449
2 716.258 586.572 87.8909 60.4059 -113.559 129.237
3 668.395 629.739 88.6352 114.071 -142.038 -41.5314
4 836.057 539.011 83.7144 101.23 -118.064 -118.249
5 720.382 541.777 86.2434 53.8497 -114.767 -35.1599
6 759.248 609.674 88.0003 68.6376 -110.269 -158.05
7 763.929 552.851 87.3047 48.7637 -111.964 83.7604
8 770.161 477.199 86.5313 96.832 -108.347 -39.7259
9 795.356 506.666 86.3825 84.8773 -119.397 112.278
10 782.184 565.587 87.3073 57.8455 -108.653 26.8541
