#Rx
# X(m), Y(m), Z(m), Distance(m), Power (dBm) Phase (deg)
1 699.062 398.004 87.4065 174.529 -153.214 34.8005
2 733.824 570.729 87.3659 47.6886 -118.583 -161.718
3 708.604 593.475 88.6442 68.1623 -126.318 -89.2761
4 819.001 539.419 84.9 86.8819 -116.373 -43.0109
5 748.621 738.662 84.0931 183.453 -106.711 16.2656
6 750.419 716.847 85.7599 162.757 -106.664 -161.793
7 814.873 419.358 84.5132 162.132 -134.157 -16.0819
8 751.489 702.896 86.6057 149.642 -111.66 77.6878
9 738.105 762.767 82.3113 206.784 -110.845 57.6
10 786.359 669.52 86.2761 124.651 -130.82 -14.5247
