#Rx
# X(m), Y(m), Z(m), Distance(m), Power (dBm) Phase (deg)
1 698.139 408.887 137.643 184.861 -124.068 145.796
2 728.54 541.582 136.49 97.3333 -129.593 -146.899
3 760.665 592.472 137.935 101.847 -133.169 -100.978
4 762.967 564.529 137.462 96.5491 -125.932 -27.0462
5 800.968 481.559 135.894 133.763 -117.236 37.6896
6 792.054 521.438 136.511 111.542 -116.489 -24.5411
7 785.328 551.522 137.152 102.826 -118.077 -43.7226
8 724.546 823.422 99.804 270.43 -250 0
9 722.785 831.301 99.764 278.243 -250 0
10 715.327 559.337 137.075 99.4039 -123.363 3.22661
