#Rx
# X(m), Y(m), Z(m), Distance(m), Power (dBm) Phase (deg)
1 681.829 601.107 189.024 165.136 -122.174 41.8928
2 684.429 570.457 189.434 159.634 -137.346 -104.773
3 686.289 548.547 188.737 158.351 -127.218 -151.855
4 824.904 488.583 184.236 177.225 -119.599 -26.7215
5 798.719 512.2 186.19 160.325 -123.549 153.728
6 787.732 522.109 186.735 154.836 -125.176 87.2046
7 736.311 568.486 187.428 145.476 -132.187 -27.9177
8 663.141 634.478 188.624 183.734 -130.146 116.315
9 796.451 501.766 186.307 163.126 -125.622 -127.623
10 722.392 833.06 149.804 294.327 -250 0
