#Rx
# X(m), Y(m), Z(m), Distance(m), Power (dBm) Phase (deg)
1 686.717 543.497 188.404 158.328 -130.399 12.4013
2 699.17 396.742 187.408 223.244 -146.661 11.5793
3 745.094 560.564 187.333 144.814 -133.164 159.039
4 669.309 628.915 188.684 178.868 -132.133 -92.3655
5 751.735 700.866 186.561 201.551 -115.034 -88.2731
6 761.72 579.669 187.783 147.425 -138.623 53.4514
7 820.821 392.753 183.381 231.107 -115.732 -130.815
8 794.903 508.691 186.314 160.312 -122.887 49.2205
9 781.084 570.51 187.376 149.41 -141.39 -144.056
10 733.534 783.215 180.871 262.907 -118.709 50.6959
