#Rx
# X(m), Y(m), Z(m), Distance(m), Power (dBm) Phase (deg)
1 686.717 543.497 138.404 113.929 -125.24 -160.338
2 699.17 396.742 137.408 194.549 -138.276 166.729
3 745.094 560.564 137.333 94.8157 -135.938 22.8806
4 669.309 628.915 138.684 140.988 -125.354 -163.11
5 751.735 700.866 136.561 169.467 -109.604 28.7738
6 761.72 579.669 137.783 98.5305 -129.398 -161.817
7 820.821 392.753 133.381 204.511 -115.893 95.8141
8 794.903 508.691 136.314 117.562 -113.212 -72.4362
9 781.084 570.51 137.376 101.677 -122.545 72.9905
10 733.534 783.215 130.871 240.386 -114.761 -32.9315
