#Rx
# X(m), Y(m), Z(m), Distance(m), Power (dBm) Phase (deg)
1 693.971 458.005 138.749 149.564 -123.651 116.65
2 696.429 429.044 139.065 170.08 -137.148 -108.746
3 726.356 577.464 137.62 98.6623 -131.485 156.124
4 750.098 720.74 135.437 185.707 -115.994 -117.729
5 757.124 635.456 137.927 122.144 -114.927 168.492
6 768.528 497.025 136.369 115.24 -117.959 -101.926
7 771.759 457.802 136.413 141.15 -114.822 143.298
8 773.419 437.649 136.776 156.86 -116.199 15.0292
9 804.043 467.806 135.781 143.407 -116.047 138.559
10 722.297 570.147 137.327 98.2476 -125.931 -167.933
