#Rx
# X(m), Y(m), Z(m), Distance(m), Power (dBm) Phase (deg)
1 689.611 509.386 137.943 121.846 -117.273 -149.354
2 694.874 447.365 139.056 156.905 -120.496 103.508
3 749.513 727.843 134.989 191.66 -110.001 46.4823
4 778.647 581.411 137.527 102.713 -117.844 -172.961
5 811.796 433.125 135.244 170.362 -113.738 -73.4975
6 793.426 680.482 135.24 159.253 -113.807 35.3913
7 785.323 667.913 136.331 148.295 -118.639 0.0887911
8 771.26 646.099 137.521 130.673 -116.538 -94.0318
9 718.205 563.8 136.925 98.4822 -120.558 -97.5766
10 715.327 559.336 137.075 99.4041 -121.501 -10.1346
