#Rx
# X(m), Y(m), Z(m), Distance(m), Power (dBm) Phase (deg)
1 673.187 702.948 135.61 185.475 -130.934 27.2389
2 796.926 513.817 136.314 116.288 -114.416 -127.917
3 761.716 545.573 136.939 96.7954 -128.108 133.77
4 728.233 575.771 137.592 97.9913 -127.851 63.4461
5 808.002 450.093 135.547 156.771 -114.142 28.9434
6 804.515 465.694 135.648 144.879 -112.948 -49.567
7 785.89 549.008 137.077 103.211 -137.677 -163.576
8 759.204 668.384 137.401 144.649 -117.423 -69.1463
9 757.692 625.053 138.031 116.148 -117.408 -51.054
10 715.728 559.959 136.927 99.1381 -133.246 68.3771
