#Rx
# X(m), Y(m), Z(m), Distance(m), Power (dBm) Phase (deg)
1 698.278 407.25 87.5356 166.241 -250 0
2 725.809 541.647 86.4543 51.7148 -104.118 -144.3
3 760.894 589.691 87.9021 56.237 -106.337 73.5751
4 763.235 561.269 87.4233 48.1108 -118.806 -31.8557
5 800.425 483.989 85.9315 103.073 -103.428 162.496
6 791.431 524.222 86.5543 72.6829 -111.074 43.7046
7 784.745 554.133 87.1884 59.4182 -115.278 160.477
8 724.237 824.805 49.804 265.797 -250 0
9 722.658 831.868 49.764 272.964 -250 0
10 715.247 559.213 87.0761 54.1413 -114.696 46.3342
