#Rx
# X(m), Y(m), Z(m), Distance(m), Power (dBm) Phase (deg)
1 686.209 549.484 113.707 93.5558 -114.602 -160.372
2 744.007 561.545 112.285 69.8068 -104.004 159.398
3 693.575 607.03 114.111 100.424 -123.792 82.8569
4 663.581 634.081 113.563 131.634 -120.791 99.0069
5 848.834 538.706 107.901 123.704 -125.191 100.447
6 814.484 421.096 109.771 168.839 -119.449 -66.0904
7 774.859 598.357 112.877 85.1685 -108.919 17.7249
8 771.416 613.759 112.951 92.1733 -112.234 -141.223
9 754.179 690.862 111.958 148.368 -117.347 137.342
10 728.883 804.022 74.8389 246.747 -250 0
