#Rx
# X(m), Y(m), Z(m), Distance(m), Power (dBm) Phase (deg)
1 782.095 527.193 186.727 152.229 -128.353 83.545
2 802.049 539.824 186.118 155.461 -124.706 20.3708
3 762.011 576.128 187.6 146.846 -143.928 -1.26095
4 763.891 553.307 187.219 145.951 -132.807 50.2947
5 768.879 492.764 186.374 160.427 -137.674 -20.2234
6 773.113 441.367 186.7 188.668 -123.505 3.67858
7 811.768 433.248 185.146 201.823 -120.127 112.447
8 808.554 447.624 185.368 192.214 -118.199 63.6906
9 726.039 575.953 187.527 147.238 -133.515 -157.545
10 718.18 563.761 186.924 147.104 -136.24 111.035
