#Rx
# X(m), Y(m), Z(m), Distance(m), Power (dBm) Phase (deg)
1 689.826 506.859 141.227 125.387 -122.227 -146.65
2 695.152 444.09 142.352 161.203 -127.031 -175.508
3 749.693 725.653 138.415 191.441 -129.551 13.5281
4 778.115 583.79 140.804 106.096 -125.31 57.0433
5 811.214 435.724 138.528 170.042 -113.844 40.5329
6 791.95 678.193 138.722 159.17 -111.695 -142.996
7 783.872 665.662 139.708 148.471 -113.834 -129.995
8 769.999 644.143 140.881 131.644 -123.402 -152.934
9 717.676 562.98 140.136 101.682 -122.412 6.30446
10 715.247 559.213 140.32 102.521 -128.902 -25.6431
