#Rx
# X(m), Y(m), Z(m), Distance(m), Power (dBm) Phase (deg)
1 680.82 612.997 108.103 106.573 -122.806 -37.3057
2 697.633 414.856 107.26 166.124 -250 0
3 660.959 636.446 107.799 131.67 -123.989 34.9751
4 774.523 540.483 106.427 72.651 -107.483 -21.7788
5 727.328 541.611 105.77 68.4611 -103.429 -70.2388
6 810.647 438.264 104.66 151.195 -111.19 157.807
7 781.572 568.324 106.681 73.8302 -104.447 2.00928
8 745.235 730.876 104.241 181.682 -115.794 -134.769
9 741.839 746.064 102.933 195.669 -120.138 83.6616
10 725.967 817.067 69.1 259.212 -250 0
