#Rx
# X(m), Y(m), Z(m), Distance(m), Power (dBm) Phase (deg)
1 780.265 528.844 138.663 106.713 -115.546 -99.0989
2 798.843 539.901 138.25 111.175 -116.335 178.29
3 762.256 573.16 139.473 99.1802 -132.555 -6.54745
4 764.121 550.52 139.04 98.6596 -126.273 -107.067
5 769.118 489.858 138.285 120.933 -122.192 -10.5446
6 773.183 440.523 138.625 155.722 -115.729 -4.08635
7 811.216 435.719 137.092 169.24 -120.812 -177.062
8 808.001 450.1 137.315 157.821 -110.042 -134.521
9 724.87 574.139 139.36 100.119 -122.777 -75.7385
10 717.658 562.951 138.799 100.404 -137.147 -54.3417
