#Rx
# X(m), Y(m), Z(m), Distance(m), Power (dBm) Phase (deg)
1 679.676 626.475 91.6153 105.961 -141.023 65.513
2 690.93 493.844 91.2321 98.9028 -118.832 -138.376
3 749.55 727.385 87.792 173.435 -122.004 -143.072
4 750.941 710.499 89.3274 157.686 -108.759 -91.7851
5 765.909 528.812 89.3595 59.6884 -107.963 117.466
6 769.916 480.179 89.4328 95.6238 -106.616 -58.7817
7 807.861 450.725 88.4213 133.695 -113.304 -107.674
8 768.438 627.077 90.8653 85.6723 -107.534 51.783
9 729.793 799.949 52.6689 240.71 -250 0
10 715.569 559.712 89.8348 56.2535 -107.46 -71.6689
