#Rx
# X(m), Y(m), Z(m), Distance(m), Power (dBm) Phase (deg)
1 680.298 619.142 96.3804 103.513 -138.715 63.4762
2 694.956 446.396 96.7623 135.842 -147.568 126.087
3 804.863 539.757 93.6537 80.554 -116.395 95.7778
4 764.05 551.386 94.8899 56.0556 -104.822 -97.3438
5 748.682 737.931 91.8846 184.67 -116.248 143.51
6 755.588 654.098 95.6181 108.469 -105.517 114.939
7 827.236 364.053 89.1928 217.192 -127.109 -72.5411
8 790.199 529.733 94.5213 74.6555 -106.739 -103.039
9 789.169 673.878 93.6093 132.067 -131.823 -36.3827
10 747.651 609.476 95.8898 72.7913 -103.025 -31.6358
