#Rx
# X(m), Y(m), Z(m), Distance(m), Power (dBm) Phase (deg)
1 693.695 461.264 88.6982 120.899 -140.613 26.9534
2 696.222 431.478 89.237 145.527 -250 0
3 728.283 575.726 87.5907 50.914 -115.335 -73.8727
4 749.86 723.629 85.1982 169.146 -113.542 96.6941
5 756.9 638.177 87.9006 91.0468 -105.324 50.0124
6 768.305 499.733 86.3656 77.793 -105.783 -139.992
7 771.583 459.941 86.411 112.216 -110.765 -29.0841
8 773.403 437.853 86.7714 132.773 -107.749 168.524
9 804.622 465.215 85.7408 119.534 -106.815 -42.2229
10 723.242 571.614 87.3879 51.6296 -108.401 -168.442
