#Rx
# X(m), Y(m), Z(m), Distance(m), Power (dBm) Phase (deg)
1 683.293 616.303 138.796 127.947 -125.616 176.137
2 660.774 543.202 140.331 130.813 -125.196 29.7096
3 755.634 653.535 137.893 133.929 -113.91 -6.16821
4 773.244 439.783 136.732 155.143 -111.83 -68.732
5 773.427 437.561 136.777 156.931 -112.142 -78.8124
6 803.317 471.055 135.731 141.011 -119.42 43.9524
7 781.884 566.928 137.226 101.51 -124.842 117.085
8 778.611 581.573 137.429 102.645 -129.961 20.7526
9 743.866 736.999 134.294 199.386 -112.006 110.19
10 731.67 584.688 137.787 99.4487 -123.021 94.1956
