#Rx
# X(m), Y(m), Z(m), Distance(m), Power (dBm) Phase (deg)
1 680.511 616.635 88.689 98.1201 -138.792 -53.9796
2 695.163 443.958 89.0696 134.969 -138.823 16.4392
3 802.132 539.822 86.1127 73.8782 -113.092 2.58588
4 764.231 549.181 87.0902 49.352 -125.521 -60.3328
5 748.891 735.388 84.3643 180.333 -108.936 -96.0337
6 755.825 651.222 87.9149 102.364 -103.157 -179.884
7 826.68 366.543 81.65 213.227 -120.859 77.6367
8 789.627 532.294 86.8453 68.0835 -111.026 -142.545
9 787.576 671.408 86.0245 126.62 -127.542 45.3873
10 746.12 607.102 88.1544 65.5801 -104.63 166.19
