#Rx
# X(m), Y(m), Z(m), Distance(m), Power (dBm) Phase (deg)
1 698.164 408.596 97.4204 168.004 -250 0
2 699.179 396.627 97.3459 178.573 -161.242 -134.043
3 661.951 635.551 98.5504 126.139 -136.533 98.3989
4 678.064 542.789 98.918 89.9545 -133.252 74.4286
5 668.14 543.026 99.6129 98.0278 -126.965 64.6617
6 758.31 621.055 98.0035 83.4104 -112.021 -23.1368
7 816.95 410.067 94.0067 173.679 -119.252 6.66594
8 794.89 508.748 96.2526 88.9032 -109.68 130.126
9 729.097 580.696 97.5606 61.1809 -105.171 142.233
