#Rx
# X(m), Y(m), Z(m), Distance(m), Power (dBm) Phase (deg)
1 689.252 513.619 100.353 93.3582 -118.364 34.473
2 786.158 523.529 98.9889 78.3019 -112.809 -120.698
3 668.547 629.602 100.913 119.385 -143.764 132.795
4 738.089 541.354 98.851 59.8585 -99.3604 86.413
5 763.251 561.073 99.797 59.8248 -107.201 96.0083
6 765.7 531.349 98.9098 66.245 -101.536 153.697
7 824.213 377.578 94.9 205.276 -135.697 30.7867
8 785.651 550.077 99.3681 70.0142 -106.649 -22.5009
9 772.524 608.801 100.183 80.0602 -108.024 -106.619
10 784.531 666.685 98.6797 126.57 -123.053 -114.493
