#Rx
# X(m), Y(m), Z(m), Distance(m), Power (dBm) Phase (deg)
1 689.933 505.597 88.0029 90.3969 -117.495 144.623
2 695.287 442.494 89.1326 136.205 -138.073 78.8317
3 749.783 724.556 85.2614 170.057 -113.301 37.8481
4 777.849 584.979 87.5764 60.5647 -112.317 44.0241
5 810.924 437.023 85.3043 145.494 -110.141 -171.234
6 791.214 677.051 85.5962 132.667 -139.585 42.0394
7 783.141 664.529 86.5312 119.342 -146.734 -65.771
8 769.368 643.165 87.6742 97.4732 -106.7 -174.02
9 717.432 562.602 86.8944 52.8361 -112.873 179.978
10 715.231 559.188 87.0764 54.151 -117.464 -13.8507
