#Rx
# X(m), Y(m), Z(m), Distance(m), Power (dBm) Phase (deg)
1 698.278 407.25 137.536 186.111 -139.823 46.2924
2 725.809 541.647 136.454 97.8136 -122.221 132.692
3 760.894 589.691 137.902 100.997 -124.07 49.6267
4 763.235 561.269 137.423 96.4605 -134.214 150.263
5 800.425 483.989 135.931 132.154 -119.745 113.291
6 791.431 524.222 136.554 110.39 -123.028 -152.131
7 784.745 554.133 137.188 102.455 -122.568 -150.031
8 724.237 824.805 99.804 271.802 -250 0
9 722.658 831.868 99.764 278.807 -250 0
10 715.247 559.213 137.076 99.431 -134.947 95.243
