#Rx
# X(m), Y(m), Z(m), Distance(m), Power (dBm) Phase (deg)
1 675.346 677.507 87.2413 144.221 -129.984 60.594
2 699.211 396.253 87.5085 176.142 -141.782 96.4346
3 841.008 474.059 83.2608 134.432 -115.871 -110.239
4 671.589 626.859 88.5663 110.123 -135.193 -129.483
5 831.146 539.129 84.0557 97.0074 -125.63 53.4478
6 773.341 438.604 86.7561 132.065 -114.712 56.2589
7 792.418 519.809 86.626 75.5974 -109.26 8.60045
8 750.865 705.689 86.4413 152.242 -106.06 -144.663
9 741.202 748.916 83.3771 193.343 -121.212 92.4011
10 717.432 562.601 86.8944 52.8364 -115.581 138.29
