#Rx
# X(m), Y(m), Z(m), Distance(m), Power (dBm) Phase (deg)
1 673.63 697.727 134.084 180.526 -139.944 -17.1995
2 687.799 530.749 136.084 114.003 -114.146 33.7979
3 696.677 426.116 136.887 171.062 -132.903 -30.4619
4 699.107 397.481 135.575 193.054 -133.265 43.2013
5 659.2 543.24 138.579 130.545 -126.558 171.941
6 752.633 689.971 135.184 159.757 -108.883 52.267
7 816.917 410.213 132.344 188.502 -110.437 80.8436
8 802.983 472.547 133.922 138.74 -115.415 -159.54
9 775.893 593.73 135.766 103.564 -120.027 19.9306
10 756.534 680.328 135.194 152.242 -108.952 -101.355
