#Rx
# X(m), Y(m), Z(m), Distance(m), Power (dBm) Phase (deg)
1 686.952 613.003 88.7028 91.8064 -136.224 165.979
2 662.192 543.168 90.0671 97.8133 -122.457 -163.991
3 755.134 659.606 87.6696 109.74 -114.82 -9.90316
4 773.113 441.365 86.5352 129.408 -113.357 37.9314
5 773.403 437.851 86.607 132.72 -107.751 -2.37809
6 804.65 465.091 85.4744 119.551 -108.4 -143.546
7 782.99 561.98 86.9928 57.8769 -98.8678 -97.2769
8 779.724 576.594 87.1956 58.3801 -117.252 142.576
9 745.169 731.167 84.5785 176.259 -112.019 128.622
10 734.529 589.122 87.806 55.0469 -117.822 -43.9225
