#Rx
# X(m), Y(m), Z(m), Distance(m), Power (dBm) Phase (deg)
1 699.142 397.067 137.408 194.283 -134.922 171.438
2 751.028 555.213 137.102 94.8333 -136.967 -176.136
3 761.956 540.783 136.787 97.5167 -122.407 -2.29235
4 759.073 611.797 138.166 109.55 -127.516 -127.276
5 750.466 707.473 136.5 174.928 -110.401 -72.8076
6 811.564 434.163 135.3 169.532 -115.009 99.1961
7 781.029 570.756 137.379 101.687 -116.12 -57.5793
8 720.089 566.723 137.046 98.2399 -131.688 74.5912
9 717.329 562.442 136.996 98.7577 -121.174 -159.265
10 715.665 559.86 136.928 99.1588 -127.339 -118.334
