#Rx
# X(m), Y(m), Z(m), Distance(m), Power (dBm) Phase (deg)
1 776.935 531.847 186.846 150.261 -134.464 102.751
2 751.007 555.232 187.243 144.884 -138.13 -33.4773
3 738.706 566.326 187.291 145.089 -135.58 -1.45868
4 663.838 633.85 188.631 183.171 -132.591 -9.47848
5 731.916 541.501 186.394 145.737 -139.261 30.0361
6 767.112 514.218 186.349 152.406 -127.923 15.167
7 772.838 444.703 186.632 186.496 -121.06 -74.1367
8 758.793 670.226 187.399 182.489 -141.108 90.2573
9 796.231 502.75 186.322 162.723 -126.949 86.9586
10 715.279 559.262 187.075 147.782 -130.704 -9.18472
