#Rx
# X(m), Y(m), Z(m), Distance(m), Power (dBm) Phase (deg)
1 699.157 396.892 101.685 179.718 -149.133 40.7436
2 749.904 556.227 101.397 59.1229 -98.8502 -175.216
3 760.558 540.816 101.046 63.2835 -105.668 168.421
4 759.163 610.703 102.43 79.5791 -108.362 -27.6164
5 750.201 708.66 100.75 159.712 -110.407 99.1376
6 811.273 435.462 99.5972 151.749 -115.12 88.5123
7 780.738 572.058 101.674 69.6484 -105.478 40.5342
8 719.733 566.171 101.3 64.6741 -106.16 71.3391
9 717.073 562.045 101.278 65.5214 -102.598 141.179
10 715.617 559.787 101.206 66.0816 -108.681 95.3785
