#Rx
# X(m), Y(m), Z(m), Distance(m), Power (dBm) Phase (deg)
1 680.82 612.997 92.8857 97.9463 -129.199 50.4902
2 697.633 414.856 92.0425 160.805 -250 0
3 660.959 636.446 92.5812 124.827 -129.759 -6.74514
4 774.523 540.483 91.2097 59.7061 -103.748 -128.019
5 727.328 541.611 90.5525 54.7135 -99.0946 45.1163
6 810.647 438.264 89.4419 145.603 -109.901 -105.469
7 781.572 568.324 91.4637 61.0722 -102.148 14.1343
8 745.235 730.876 89.0237 177.091 -115.654 -142.464
9 741.839 746.064 87.7149 191.519 -132.14 54.2286
10 725.967 817.067 53.8823 258.096 -250 0
