#Rx
# X(m), Y(m), Z(m), Distance(m), Power (dBm) Phase (deg)
1 699.211 396.253 105.931 181.722 -151.458 172.331
2 712.893 589.607 106.645 78.0011 -120.827 118.859
3 666.548 631.405 107.04 124.795 -127.937 24.4085
4 832.351 539.1 102.395 107.135 -132.031 65.1109
5 716.1 541.879 104.739 71.3662 -105.039 80.3344
6 759.596 605.443 106.373 79.5405 -106.06 -82.8451
7 764.293 548.435 105.59 66.6762 -107.657 56.5007
8 770.455 473.63 104.958 109.343 -110.589 59.7582
9 794.348 511.175 104.875 92.7852 -107.756 59.6135
10 781.299 569.548 105.785 73.0698 -113.24 74.3464
