#Rx
# X(m), Y(m), Z(m), Distance(m), Power (dBm) Phase (deg)
1 673.509 699.153 85.8328 162.77 -136.969 68.0345
2 687.68 532.15 87.9701 79.0078 -109.272 128.704
3 696.57 427.372 88.8073 148.915 -250 0
4 699.085 397.735 87.4068 174.773 -149.339 -130.871
5 659.259 543.239 90.4114 100.49 -118.812 -147.043
6 752.524 691.29 86.978 138.765 -104.659 -124.474
7 817.205 408.925 84.1143 172.116 -138.811 -8.22224
8 803.269 471.267 85.7345 114.108 -104.282 116.862
9 776.246 592.151 87.576 63.073 -111.162 -154.122
10 756.875 678.804 87.061 127.343 -108.153 133.67
