#Rx
# X(m), Y(m), Z(m), Distance(m), Power (dBm) Phase (deg)
1 673.187 702.948 85.6104 166.109 -140.371 172.09
2 796.926 513.817 86.3138 81.5104 -113.584 -56.7849
3 761.716 545.573 86.9387 49.2731 -108.445 119.241
4 728.233 575.771 87.5915 50.946 -111.507 145.038
5 808.002 450.093 85.5467 133.322 -109.025 -174.965
6 804.515 465.694 85.6482 119.069 -109.434 -33.6667
7 785.89 549.008 87.0773 60.8036 -110.308 -94.7598
8 759.204 668.384 87.4012 118.049 -111.907 86.754
9 757.692 625.053 88.0311 80.2467 -109.968 81.5557
10 715.728 559.959 86.9269 53.7404 -115.125 -94.7315
