#Rx
# X(m), Y(m), Z(m), Distance(m), Power (dBm) Phase (deg)
1 686.952 613.003 88.8673 91.8893 -131.899 -171.692
2 662.192 543.168 90.2316 97.8933 -115.11 162.044
3 755.134 659.606 87.8341 109.808 -105.99 39.7022
4 773.113 441.365 86.6997 129.464 -110.494 -38.4724
5 773.403 437.851 86.7715 132.775 -109.482 31.6971
6 804.65 465.091 85.6389 119.61 -115.403 -121.522
7 782.99 561.98 87.1573 58.0033 -107.082 -177.207
8 779.724 576.594 87.3601 58.5061 -101.492 -54.8828
9 745.169 731.167 84.743 176.299 -107.774 178.714
10 734.529 589.122 87.9705 55.1823 -122.578 -97.2952
