#Rx
# X(m), Y(m), Z(m), Distance(m), Power (dBm) Phase (deg)
1 682.792 589.759 99.7237 90.2926 -121.734 10.7734
2 684.134 573.942 99.8825 85.5093 -124.143 -166.867
3 689.205 514.173 98.1836 91.7811 -115.125 147.444
4 659.794 543.226 100.575 105.275 -119.338 -84.2849
5 754.373 668.851 97.8021 122.37 -113.434 -20.3046
6 755.637 653.497 98.2082 109.249 -121.844 -174.33
7 760.719 591.809 98.1026 65.7077 -105.298 45.999
8 772.803 445.134 97.0779 129.956 -112.844 99.2227
9 799.287 489.079 96.3255 103.749 -105.524 27.9806
10 778.436 582.355 97.8953 67.9548 -103.729 93.8759
