#Rx
# X(m), Y(m), Z(m), Distance(m), Power (dBm) Phase (deg)
1 689.504 510.652 88.4985 87.9812 -117.305 163.641
2 694.732 449.043 89.6048 130.983 -152.215 -22.7493
3 749.423 728.937 85.4735 174.345 -113.754 -85.4292
4 778.913 580.222 88.0854 59.7332 -106.935 44.8619
5 812.086 431.825 85.7844 150.558 -136.522 86.1417
6 794.165 681.628 85.6961 137.758 -134.735 174.687
7 786.052 669.043 86.8392 124.332 -135.457 107.215
8 771.89 647.076 88.0382 101.607 -107.974 -53.9856
9 718.489 564.242 87.5186 52.9092 -105.573 -73.9395
10 715.389 559.433 87.6483 54.5305 -107.463 -150.453
