#Rx
# X(m), Y(m), Z(m), Distance(m), Power (dBm) Phase (deg)
1 681.173 608.832 138.857 125.965 -125.632 -88.0108
2 697.874 412.012 137.724 182.427 -129.73 167.105
3 660.765 636.621 138.461 149.465 -121.766 -27.8489
4 770.356 540.582 137.037 99.5139 -121.578 -86.2003
5 723.715 541.697 136.387 98.1935 -125.757 175.946
6 809.868 441.748 135.377 163.354 -113.572 9.80984
7 780.596 572.693 137.406 101.787 -126.764 -41.242
8 744.354 734.813 134.602 197.587 -127.211 124.684
9 740.96 749.995 133.294 210.625 -117.062 19.8459
10 725.299 820.055 99.764 267.083 -250 0
