#Rx
# X(m), Y(m), Z(m), Distance(m), Power (dBm) Phase (deg)
1 676.813 660.214 98.867 134.18 -147.743 -79.4924
2 682.339 595.09 99.9058 92.6107 -122.374 100.07
3 673.387 542.901 100.16 94.2704 -125.308 73.0326
4 751.216 707.171 97.131 157.062 -113.601 -111.552
5 753.974 673.685 98.0994 126.794 -111.55 176.296
6 761.034 587.993 98.6341 64.4826 -102.936 140.336
7 762.578 569.253 98.2707 58.8913 -107.245 -68.0458
8 723.598 827.662 60.5163 269.2 -250 0
9 720.881 567.951 97.989 61.4053 -104.354 167.043
