#Rx
# X(m), Y(m), Z(m), Distance(m), Power (dBm) Phase (deg)
1 684.765 566.502 98.9558 83.5261 -124.415 155.327
2 688.142 526.709 97.335 86.3724 -109.998 -26.7171
3 692.07 480.413 97.9707 110.982 -121.885 -57.5575
4 742.918 562.527 96.9394 54.5616 -101.173 -159.559
5 721.782 541.744 95.9345 61.4209 -101.36 110.86
6 673.784 542.891 98.8527 93.171 -117.084 85.5613
7 763.24 561.214 96.9955 57.1478 -112.319 -74.6191
8 772.791 445.274 96.3327 129.519 -111.978 -37.5966
9 773.242 439.797 96.3046 134.474 -114.247 -16.1192
10 749.02 713.943 95.6413 162.877 -124.125 157.632
