#Rx
# X(m), Y(m), Z(m), Distance(m), Power (dBm) Phase (deg)
1 686.717 543.497 99.3484 83.7608 -110.972 -104.295
2 699.17 396.742 98.3526 178.782 -142.691 113.948
3 745.094 560.564 98.2779 55.7645 -104.391 -76.3267
4 669.309 628.915 99.6287 117.863 -133.233 26.5956
5 751.735 700.866 97.5057 151.325 -108.662 109.513
6 761.72 579.669 98.7272 61.5859 -105.476 100.174
7 820.821 392.753 94.3255 190.402 -137.729 -163.31
8 794.903 508.691 97.2585 89.5548 -104.093 -65.1583
9 781.084 570.51 98.3203 66.7428 -103.422 -31.1004
10 733.534 783.215 91.8158 228.932 -118.565 -1.9725
