#Rx
# X(m), Y(m), Z(m), Distance(m), Power (dBm) Phase (deg)
1 681.056 610.22 87.8492 93.7774 -131.797 -101.662
2 697.796 412.932 86.8104 160.978 -250 0
3 660.808 636.582 87.4833 123.06 -139.219 -84.4845
4 771.746 540.549 86.077 54.204 -98.6508 74.1831
5 724.918 541.669 85.4245 51.1957 -106.081 163.428
6 810.128 440.584 84.3813 141.862 -116.581 -57.9082
7 780.921 571.239 86.4077 57.1978 -108.007 -128.723
8 744.648 733.5 83.7253 178.331 -118.061 -109.037
9 741.254 748.684 82.4168 192.914 -117.342 -49.2493
10 725.514 819.092 48.7859 259.976 -250 0
