#Rx
# X(m), Y(m), Z(m), Distance(m), Power (dBm) Phase (deg)
1 680.192 620.392 91.0792 101.664 -134.834 1.06542
2 694.853 447.615 91.4554 132.819 -139.134 148.899
3 806.23 539.724 88.271 78.3045 -116.191 20.1459
4 763.959 552.485 89.6364 50.9768 -98.2247 84.2059
5 748.577 739.203 86.4915 184.536 -117.958 81.2366
6 755.469 655.535 90.3165 107.242 -105.124 -98.5253
7 827.516 362.804 83.8106 217.338 -125.395 -114.513
8 790.486 528.45 89.1998 71.7851 -114.88 -6.43572
9 789.965 675.113 88.2404 131.431 -126.729 160.077
10 748.416 610.663 90.6042 69.8882 -107.154 94.5404
