#Rx
# X(m), Y(m), Z(m), Distance(m), Power (dBm) Phase (deg)
1 685.005 563.673 96.0378 81.2259 -124.355 -104.026
2 688.357 524.167 94.4747 85.473 -119.791 30.2495
3 692.255 478.225 95.1952 111.13 -126.396 -67.3957
4 740.902 564.345 94.1605 52.0696 -105.996 176.923
5 719.09 541.808 93.0895 60.0999 -97.8929 -28.0683
6 672.091 542.932 96.1615 92.9026 -117.655 -174.089
7 763.469 558.43 94.1418 54.5168 -105.885 -132.397
8 772.898 443.984 93.5493 129.564 -112.774 -66.4101
9 773.296 439.147 93.508 133.977 -110.541 122.184
10 748.384 716.787 92.6126 164.611 -113.615 101.771
