#Rx
# X(m), Y(m), Z(m), Distance(m), Power (dBm) Phase (deg)
1 682.239 596.275 139.184 121.345 -121.968 -124.319
2 687.575 533.387 138.073 115.115 -121.171 128.598
3 726.725 577.131 137.67 98.5795 -127.833 48.9701
4 752.958 686.018 137.146 157.741 -118.819 -61.8799
5 755.08 660.266 137.884 138.669 -113.122 -46.5614
6 769.321 623.128 138.047 116.849 -119.007 169.792
7 751.632 702.258 136.576 170.631 -112.459 62.1518
8 724.732 822.593 99.8198 269.611 -250 0
9 783.021 664.343 136.498 145.222 -114.776 57.3012
