#Rx
# X(m), Y(m), Z(m), Distance(m), Power (dBm) Phase (deg)
1 699.062 398.004 102.038 178.851 -144.075 -124.698
2 733.824 570.729 101.997 61.6477 -101.713 -20.5611
3 708.604 593.475 103.275 78.8019 -120.433 -94.2873
4 819.001 539.419 99.5311 94.8818 -125.157 111.435
5 748.621 738.662 98.7242 187.311 -113.613 -158.385
6 750.419 716.847 100.391 167.239 -121.541 125.162
7 814.873 419.358 99.1442 166.522 -124.719 -83.4423
8 751.489 702.896 101.237 154.585 -111.93 159.168
9 738.105 762.767 96.9423 210.091 -124.062 -32.0994
10 786.359 669.52 100.907 130.507 -126.907 -55.3873
