#Rx
# X(m), Y(m), Z(m), Distance(m), Power (dBm) Phase (deg)
1 689.719 508.122 187.963 164.352 -126.729 48.7182
2 695.014 445.715 189.082 192.718 -126.417 -35.0665
3 749.603 726.75 185.08 219.41 -115.9 -160.657
4 778.381 582.598 187.543 150.3 -130.205 176.555
5 811.505 434.425 185.264 201.084 -124.575 149.216
6 792.688 679.337 185.359 191.893 -122.025 112.635
7 784.596 666.786 186.398 183.283 -122.713 51.0856
8 770.629 645.12 187.579 169.979 -119.937 -161.043
9 717.934 563.38 186.908 147.126 -136.923 -45.7367
10 715.279 559.262 187.075 147.782 -130.956 -4.0178
