#Rx
# X(m), Y(m), Z(m), Distance(m), Power (dBm) Phase (deg)
1 673.303 701.589 105.402 171.132 -137.335 16.7326
2 796.01 514.643 106.089 92.73 -107.654 38.5519
3 760.767 546.429 106.665 67.2041 -105.096 173.904
4 727.124 576.772 107.321 69.5432 -104.758 109.61
5 807.709 451.404 105.279 139.783 -111.323 9.29729
6 804.222 467.006 105.381 126.447 -114.768 -43.4889
7 785.609 550.265 106.807 76.1316 -102.881 83.3999
8 758.937 669.581 107.086 127.842 -113.248 170.816
9 756.922 623.858 107.767 91.9444 -105.91 148.872
10 715.665 559.861 106.64 70.9309 -103.35 151.312
