#Rx
# X(m), Y(m), Z(m), Distance(m), Power (dBm) Phase (deg)
1 673.533 698.876 135.849 182.339 -131.719 -137.439
2 794.18 516.293 136.504 114.298 -114.657 109.648
3 758.864 548.145 136.982 96.065 -130.946 44.9537
4 724.907 578.771 137.642 99.2213 -131.994 114.488
5 807.124 454.024 135.608 153.726 -112.135 -165.234
6 803.635 469.628 135.709 142.03 -114.475 119.831
7 785.048 552.777 137.13 102.602 -118.575 -58.631
8 758.4 671.983 137.318 147.241 -110.616 -39.7542
9 755.38 621.466 138.102 114.023 -120.945 89.0198
10 715.585 559.737 136.93 99.1848 -124.72 -59.3891
