#Rx
# X(m), Y(m), Z(m), Distance(m), Power (dBm) Phase (deg)
1 675.169 679.598 87.1188 145.978 -127.235 -29.933
2 699.201 396.371 87.5084 176.035 -147.836 62.4559
3 842.896 472.357 83.13 136.817 -116.827 -88.5295
4 672.942 625.639 88.5794 108.476 -140.81 8.20312
5 833.477 539.073 83.8937 99.0035 -130.224 -169.369
6 773.297 439.136 86.7452 131.563 -108.713 -119.492
7 793.029 517.076 86.5837 77.4307 -115.955 -2.4118
8 751.533 702.699 86.5102 149.427 -108.052 21.0694
9 741.805 746.218 83.5847 190.738 -109.071 -116.446
10 717.936 563.383 86.9082 52.6217 -115.412 -57.0475
