#Rx
# X(m), Y(m), Z(m), Distance(m), Power (dBm) Phase (deg)
1 673.648 697.518 85.9286 161.338 -154.507 -171.818
2 793.264 517.12 86.5674 77.5401 -112.539 146.387
3 757.913 549.003 86.9969 47.3363 -112.478 43.9156
4 723.797 579.772 87.6595 54.0478 -118.481 8.875
5 806.831 455.334 85.6278 128.504 -105.345 9.43281
6 803.342 470.941 85.7294 114.396 -104.749 -130.986
7 784.768 554.03 87.147 59.4124 -110.809 79.9483
8 758.132 673.181 87.2907 122.316 -109.493 -31.3356
9 754.609 620.269 88.1254 76.066 -112.478 112.212
10 715.569 559.712 86.9299 53.8333 -116.457 122.756
