#Rx
# X(m), Y(m), Z(m), Distance(m), Power (dBm) Phase (deg)
1 698.978 399.001 87.4053 173.627 -140.729 73.4381
2 736.559 568.262 87.324 46.524 -118.681 -59.8321
3 711.095 591.228 88.3991 65.5603 -130.472 -122.02
4 823.371 539.315 84.5963 90.4667 -117.446 -7.06958
5 750.061 721.183 85.4007 166.838 -106.371 -177.844
6 815.828 415.088 84.309 166.197 -139.206 -55.8182
7 752.355 699.025 86.6949 146.011 -106.78 -9.76176
8 738.963 758.932 82.6064 203.052 -110.692 106.488
9 788.355 672.616 86.093 127.963 -127.635 48.6018
