#Rx
# X(m), Y(m), Z(m), Distance(m), Power (dBm) Phase (deg)
1 781.182 528.016 108.915 81.6613 -105.654 70.6791
2 800.445 539.863 108.404 87.807 -116.169 -105.377
3 762.133 574.646 109.757 70.6765 -103.02 133.156
4 764.006 551.913 109.35 69.6805 -104.55 -120.67
5 768.999 491.312 108.55 98.0126 -110.153 -173.15
6 773.149 440.933 108.883 138.988 -116.3 50.3989
7 811.492 434.484 107.339 155.707 -113.259 -6.58837
8 808.277 448.863 107.562 143.038 -112.99 80.9897
9 725.455 575.046 109.664 71.8077 -107.047 -49.5147
10 717.911 563.344 109.081 72.3193 -109.706 153.736
