#Rx
# X(m), Y(m), Z(m), Distance(m), Power (dBm) Phase (deg)
1 673.187 702.948 82.153 165.246 -139.744 97.0621
2 796.926 513.817 82.8564 79.7063 -112.698 -78.1169
3 761.716 545.573 83.4812 46.1809 -99.7682 134.207
4 728.233 575.771 84.1341 47.9147 -103.476 132.71
5 808.002 450.093 82.0893 132.247 -112.213 -73.3192
6 804.515 465.694 82.1908 117.86 -109.439 15.5217
7 785.89 549.008 83.6199 58.3177 -105.774 1.04536
8 759.204 668.384 83.9438 116.778 -106.832 -142.202
9 757.692 625.053 84.5737 78.3378 -109.125 -175.756
10 715.728 559.959 83.4695 50.9209 -111.211 79.9741
