#Rx
# X(m), Y(m), Z(m), Distance(m), Power (dBm) Phase (deg)
1 678.023 645.961 88.5003 118.845 -132.455 171.586
2 691.462 487.571 88.2856 101.56 -117.263 77.469
3 668.953 543.007 89.7582 91.9575 -113.785 63.701
4 773.032 442.354 86.6795 128.534 -108.57 23.4297
5 756.687 640.754 87.8758 93.2319 -109.302 -126.483
6 758.82 614.86 88.2021 72.5292 -108.815 -162.768
7 768.034 503.022 86.5018 75.2737 -110.479 -48.6436
8 780.002 659.659 86.7192 114.198 -143.105 36.2993
9 769.18 642.873 87.8199 97.2468 -110.126 -38.5577
10 717.191 562.228 86.899 52.9537 -115.341 -51.4057
