#Rx
# X(m), Y(m), Z(m), Distance(m), Power (dBm) Phase (deg)
1 673.533 698.876 94.0898 164.915 -147.158 128.43
2 794.18 516.293 94.7447 83.4186 -109.78 -142.319
3 758.864 548.145 95.2231 55.5272 -98.279 90.7307
4 724.907 578.771 95.8833 60.3698 -103.053 -87.3848
5 807.124 454.024 93.8483 132.67 -114.625 28.4639
6 803.635 469.628 93.9499 118.885 -110.461 -3.25313
7 785.048 552.777 95.3704 66.1036 -102.744 -65.2599
8 758.4 671.983 95.5591 124.526 -108.798 -115.413
9 755.38 621.466 96.3426 82.2347 -107.554 107.75
10 715.585 559.737 95.1704 60.8014 -100.687 139.325
