#Rx
# X(m), Y(m), Z(m), Distance(m), Power (dBm) Phase (deg)
1 680.617 615.383 138.716 128.822 -127.343 57.2641
2 695.267 442.734 139.089 160.156 -123.86 146.105
3 800.766 539.855 136.208 110.371 -117.221 62.9543
4 764.322 548.083 137.056 97.0261 -124.785 -8.99041
5 748.996 734.114 134.47 196.923 -111.927 71.3457
6 755.943 649.784 137.929 131.385 -129.618 137.042
7 826.401 367.791 131.744 226.647 -111.492 -130.233
8 789.34 533.575 136.863 107.129 -118.28 -76.4045
9 786.78 670.174 136.097 150.191 -115.933 101.868
10 745.354 605.913 138.152 106.082 -117.406 32.1585
