#Rx
# X(m), Y(m), Z(m), Distance(m), Power (dBm) Phase (deg)
1 677.72 649.526 88.1281 121.478 -137.174 45.403
2 699.114 397.399 87.3534 175.064 -145.299 111.805
3 739.086 541.33 86.4342 48.2133 -101.901 -178.286
4 722.657 541.723 86.2193 52.8041 -103.286 149.661
5 768.256 500.33 86.1711 77.2071 -109.436 -68.2003
6 771.061 466.276 86.35 106.457 -107.99 -18.6887
7 773.427 437.561 86.5836 132.985 -117.237 10.511
8 758.166 673.027 87.0004 122.071 -111.317 57.0642
9 724.314 824.459 49.6102 265.441 -250 0
10 798.43 688.244 84.3808 144.732 -134.01 -167.587
