#Rx
# X(m), Y(m), Z(m), Distance(m), Power (dBm) Phase (deg)
1 698.344 406.47 138.497 187.226 -132.302 -135.77
2 724.442 541.68 137.397 99.0018 -130.678 -82.5708
3 761.008 588.303 138.846 101.51 -137.391 19.9331
4 763.37 559.637 138.364 97.4028 -122.244 -135.877
5 800.154 485.203 136.911 132.046 -119.529 -11.4082
6 791.12 525.612 137.543 110.666 -115.276 92.2229
7 784.453 555.439 138.167 103.185 -132.234 94.9951
8 724.091 825.458 100.765 272.653 -250 0
9 722.607 832.096 100.725 279.233 -250 0
10 715.231 559.188 138.037 100.35 -126.72 -145.195
