#Rx
# X(m), Y(m), Z(m), Distance(m), Power (dBm) Phase (deg)
1 777.951 530.93 86.0569 61.3277 -106.263 9.50765
2 751.974 554.36 86.4548 44.6929 -104.559 116.699
3 739.656 565.469 86.5034 44.7704 -98.9027 -103.067
4 664.228 633.497 87.8616 118.929 -149.74 15.8143
5 733.406 541.466 85.6406 48.5922 -101.106 -128.769
6 766.983 515.779 85.5742 65.1851 -109.533 -58.088
7 772.785 445.345 85.8453 125.459 -109.599 -124.324
8 759.089 668.902 86.6562 118.231 -106.958 -73.9651
9 796.528 501.422 85.5282 88.509 -105.824 83.4145
10 715.327 559.336 86.3014 53.4582 -118.861 -57.7398
