#Rx
# X(m), Y(m), Z(m), Distance(m), Power (dBm) Phase (deg)
1 676.921 658.943 88.1892 129.023 -138.383 -157.179
2 682.432 593.998 89.1771 85.8678 -128.032 174.912
3 672.411 542.924 89.476 88.9461 -126.096 152.985
4 751.33 705.784 86.4189 152.342 -105.193 -134.693
5 754.089 672.295 87.3873 121.196 -104.484 55.9873
6 761.156 586.515 87.8642 54.6671 -113.612 -159.355
7 762.697 567.808 87.5012 48.6079 -110.828 117.048
8 723.469 828.241 49.764 269.283 -250 0
9 720.482 567.333 87.2112 51.98 -118.002 118.615
