#Rx
# X(m), Y(m), Z(m), Distance(m), Power (dBm) Phase (deg)
1 673.187 702.948 130.839 183.127 -139.881 -90.0408
2 796.926 513.817 131.542 112.475 -121.696 65.1052
3 761.716 545.573 132.167 92.1472 -133.215 55.893
4 728.233 575.771 132.82 93.3693 -124.654 -18.8895
5 808.002 450.093 130.775 153.987 -114.435 83.6779
6 804.515 465.694 130.877 141.859 -114.999 -178.417
7 785.89 549.008 132.306 98.8579 -122.53 133.93
8 759.204 668.384 132.63 141.565 -114.979 120.354
9 757.692 625.053 133.26 112.257 -117.288 -85.1035
10 715.728 559.959 132.155 94.6057 -124.255 -167.967
