#Rx
# X(m), Y(m), Z(m), Distance(m), Power (dBm) Phase (deg)
1 673.187 702.948 185.61 214.964 -133.593 154.918
2 796.926 513.817 186.314 159.38 -127.5 -132.172
3 761.716 545.573 186.939 145.982 -140.454 -71.402
4 728.233 575.771 187.592 147 -140.781 123.102
5 808.002 450.093 185.547 190.734 -123.758 176.691
6 804.515 465.694 185.648 181.114 -127.818 152.643
7 785.89 549.008 187.077 150.359 -129.172 -121.368
8 759.204 668.384 187.401 181.414 -118.166 121.727
9 757.692 625.053 188.031 159.816 -124.905 153.701
10 715.728 559.959 186.927 147.542 -150.007 -65.8167
