#Rx
# X(m), Y(m), Z(m), Distance(m), Power (dBm) Phase (deg)
1 677.614 650.777 107.07 130.703 -123.087 -103.585
2 699.088 397.705 106.308 180.579 -155.554 14.6956
3 740.663 541.292 105.41 65.8266 -101.748 103.581
4 724.148 541.687 105.194 68.8508 -102.358 -70.3146
5 768.164 501.448 105.125 88.5349 -106.496 -19.6427
6 770.956 467.554 105.303 114.501 -112.973 -152.688
7 773.424 437.59 105.538 140.382 -110.699 56.6493
8 758.438 671.81 105.983 129.164 -115.938 -86.0627
9 724.466 823.781 68.5652 265.937 -250 0
10 799.087 689.264 103.23 152.357 -134.646 -161.392
